Current (mA)	Voltage (V)	Power (mW)
-5.000000000	-5.000262000	-0.000001143
-4.000000000	-5.000180000	-0.000000324
-3.000000000	-5.000240000	-0.000000409
-2.000000000	-5.000257000	-0.000000263
-1.000000000	-5.000318000	-0.000000485
0.000000000	-2.299761000	0.000000352
1.000000000	1.747323000	0.000007099
2.000000000	1.779905000	0.000023546
3.000000000	1.796400000	0.000043365
4.000000000	1.808097000	0.000061895
5.000000000	1.817290000	0.000079678
6.000000000	1.825052000	0.000096926
7.000000000	1.831875000	0.000114152
8.000000000	1.837967000	0.000130564
9.000000000	1.843466000	0.000146810
10.000000000	1.848647000	0.000162640
11.000000000	1.853394000	0.000176849
12.000000000	1.857902000	0.000193404
13.000000000	1.862227000	0.000208543
14.000000000	1.866285000	0.000223208
15.000000000	1.870202000	0.000237586
16.000000000	1.874003000	0.000252036
17.000000000	1.877666000	0.000266062
18.000000000	1.881145000	0.000279850
19.000000000	1.884607000	0.000293307
20.000000000	1.887949000	0.000307241
21.000000000	1.891163000	0.000320553
22.000000000	1.894343000	0.000333973
23.000000000	1.897433000	0.000347049
24.000000000	1.900481000	0.000359954
25.000000000	1.903483000	0.000372904
26.000000000	1.906436000	0.000385654
27.000000000	1.909305000	0.000398126
28.000000000	1.912159000	0.000409916
29.000000000	1.914965000	0.000423064
30.000000000	1.917689000	0.000435166
31.000000000	1.920398000	0.000447499
32.000000000	1.923138000	0.000459679
33.000000000	1.925754000	0.000471014
34.000000000	1.928386000	0.000483562
35.000000000	1.931023000	0.000495529
36.000000000	1.933580000	0.000507124
37.000000000	1.936134000	0.000518784
38.000000000	1.938669000	0.000530508
39.000000000	1.941158000	0.000542020
40.000000000	1.943602000	0.000553432
41.000000000	1.946070000	0.000565041
42.000000000	1.948497000	0.000575733
43.000000000	1.950899000	0.000587502
44.000000000	1.953305000	0.000598847
45.000000000	1.955735000	0.000610008
46.000000000	1.958083000	0.000620986
47.000000000	1.960439000	0.000632212
48.000000000	1.962836000	0.000643302
49.000000000	1.965151000	0.000654080
50.000000000	1.967407000	0.000665025
51.000000000	1.969748000	0.000675189
52.000000000	1.972032000	0.000686753
53.000000000	1.974248000	0.000697414
54.000000000	1.976559000	0.000708311
55.000000000	1.978817000	0.000718869
56.000000000	1.980998000	0.000729099
57.000000000	1.983244000	0.000740168
58.000000000	1.985515000	0.000750656
59.000000000	1.987675000	0.000761100
60.000000000	1.989895000	0.000771583
61.000000000	1.992091000	0.000782089
62.000000000	1.994267000	0.000792324
63.000000000	1.996416000	0.000802653
64.000000000	1.998622000	0.000813152
65.000000000	2.000732000	0.000823253
66.000000000	2.002885000	0.000833456
67.000000000	2.005036000	0.000843871
68.000000000	2.007182000	0.000853831
69.000000000	2.009261000	0.000863869
70.000000000	2.011432000	0.000873331
71.000000000	2.013552000	0.000884241
72.000000000	2.015615000	0.000894140
73.000000000	2.017703000	0.000904222
74.000000000	2.019837000	0.000914203
75.000000000	2.021874000	0.000923537
76.000000000	2.023957000	0.000933907
77.000000000	2.026074000	0.000943851
78.000000000	2.028162000	0.000953681
79.000000000	2.030212000	0.000963331
80.000000000	2.032261000	0.000973314
81.000000000	2.034355000	0.000983000
82.000000000	2.036362000	0.000992649
83.000000000	2.038390000	0.001002369
84.000000000	2.040460000	0.001011538
85.000000000	2.042493000	0.001021596
86.000000000	2.044534000	0.001031317
87.000000000	2.046584000	0.001040930
88.000000000	2.048557000	0.001050294
89.000000000	2.050584000	0.001059844
90.000000000	2.052630000	0.001069465
91.000000000	2.054644000	0.001078823
92.000000000	2.056606000	0.001088193
93.000000000	2.058673000	0.001097114
94.000000000	2.060682000	0.001107084
95.000000000	2.062628000	0.001116341
96.000000000	2.064617000	0.001125741
97.000000000	2.066594000	0.001135075
98.000000000	2.068590000	0.001144190
99.000000000	2.070534000	0.001153570
100.000000000	2.072579000	0.001162826
101.000000000	2.074551000	0.001171899
102.000000000	2.076525000	0.001180319
103.000000000	2.078494000	0.001190294
104.000000000	2.080453000	0.001199263
105.000000000	2.082362000	0.001208373
106.000000000	2.084488000	0.001216301
107.000000000	2.086503000	0.001227287
108.000000000	2.088373000	0.001236233
109.000000000	2.090318000	0.001245320
110.000000000	2.092272000	0.001254316
111.000000000	2.094181000	0.001263221
112.000000000	2.096134000	0.001272127
113.000000000	2.098100000	0.001281138
114.000000000	2.100365000	0.001289328
115.000000000	2.102280000	0.001297831
116.000000000	2.104299000	0.001306780
117.000000000	2.106065000	0.001315108
118.000000000	2.107966000	0.001324219
119.000000000	2.110013000	0.001333082
120.000000000	2.112524000	0.001341575
121.000000000	2.114913000	0.001350267
122.000000000	2.116640000	0.001359161
123.000000000	2.118577000	0.001367702
124.000000000	2.120348000	0.001376255
125.000000000	2.122318000	0.001385036
126.000000000	2.124162000	0.001392918
127.000000000	2.126011000	0.001401973
128.000000000	2.128030000	0.001410659
129.000000000	2.129923000	0.001419096
130.000000000	2.131639000	0.001427411
131.000000000	2.133600000	0.001435263
132.000000000	2.135522000	0.001444423
133.000000000	2.137276000	0.001452703
134.000000000	2.139096000	0.001461167
135.000000000	2.141090000	0.001469552
136.000000000	2.142814000	0.001477459
137.000000000	2.144672000	0.001486129
138.000000000	2.146693000	0.001494499
139.000000000	2.148482000	0.001502587
140.000000000	2.150201000	0.001510795
141.000000000	2.152236000	0.001518856
142.000000000	2.153980000	0.001527079
143.000000000	2.155771000	0.001535263
144.000000000	2.157759000	0.001543504
145.000000000	2.159393000	0.001551572
146.000000000	2.161291000	0.001559708
147.000000000	2.163281000	0.001567888
148.000000000	2.165134000	0.001575853
149.000000000	2.166939000	0.001583742
150.000000000	2.168911000	0.001591480
151.000000000	2.170726000	0.001599702
152.000000000	2.172412000	0.001607531
153.000000000	2.174256000	0.001615469
154.000000000	2.176039000	0.001623430
155.000000000	2.177893000	0.001631224
156.000000000	2.179863000	0.001639130
157.000000000	2.181797000	0.001669646
158.000000000	2.183618000	0.001663821
159.000000000	2.185450000	0.001667245
160.000000000	2.187155000	0.001673528
161.000000000	2.188957000	0.001680506
162.000000000	2.190943000	0.001687761
163.000000000	2.192620000	0.001694746
164.000000000	2.194502000	0.001702432
165.000000000	2.196620000	0.001709881
166.000000000	2.198430000	0.001717195
167.000000000	2.200264000	0.001724696
168.000000000	2.202112000	0.001732186
169.000000000	2.203815000	0.001739497
170.000000000	2.205570000	0.001747090
171.000000000	2.207470000	0.001754399
172.000000000	2.209152000	0.001761395
173.000000000	2.210886000	0.001768943
174.000000000	2.212853000	0.001776422
175.000000000	2.214552000	0.001783632
176.000000000	2.216924000	0.001790426
177.000000000	2.218776000	0.001798260
178.000000000	2.220628000	0.001805370
179.000000000	2.222320000	0.001812693
180.000000000	2.224118000	0.001819988
181.000000000	2.225807000	0.001826906
182.000000000	2.227477000	0.001834282
183.000000000	2.229283000	0.001841359
184.000000000	2.230923000	0.001848256
185.000000000	2.232747000	0.001855325
186.000000000	2.234484000	0.001862470
187.000000000	2.236168000	0.001869293
188.000000000	2.237861000	0.001876177
189.000000000	2.239748000	0.001883383
190.000000000	2.241372000	0.001889783
191.000000000	2.243038000	0.001896917
192.000000000	2.244931000	0.001904003
193.000000000	2.246623000	0.001910522
194.000000000	2.248439000	0.001917348
195.000000000	2.250256000	0.001924236
196.000000000	2.252052000	0.001930845
197.000000000	2.253672000	0.001937591
198.000000000	2.255563000	0.001944380
199.000000000	2.257268000	0.001950613
200.000000000	2.259100000	0.001957644
201.000000000	2.260904000	0.001964397
202.000000000	2.262785000	0.001970995
203.000000000	2.264634000	0.001977455
204.000000000	2.266285000	0.001984071
205.000000000	2.268320000	0.001990578
206.000000000	2.269737000	0.001996874
207.000000000	2.272916000	0.002003502
208.000000000	2.274441000	0.002009632
209.000000000	2.277958000	0.002016178
210.000000000	2.278464000	0.002022815
211.000000000	2.280179000	0.002029052
212.000000000	2.281235000	0.002034758
213.000000000	2.282950000	0.002041753
214.000000000	2.284408000	0.002047909
215.000000000	2.285895000	0.002053963
216.000000000	2.287642000	0.002060454
217.000000000	2.289420000	0.002066552
218.000000000	2.290846000	0.002072551
219.000000000	2.292664000	0.002078855
220.000000000	2.294293000	0.002084781
221.000000000	2.295906000	0.002090542
222.000000000	2.297632000	0.002096941
223.000000000	2.299262000	0.002102930
224.000000000	2.300755000	0.002108769
225.000000000	2.302644000	0.002114371
226.000000000	2.304392000	0.002120561
227.000000000	2.305808000	0.002126389
228.000000000	2.307539000	0.002132300
229.000000000	2.309195000	0.002138058
230.000000000	2.310843000	0.002143707
231.000000000	2.312767000	0.002149706
232.000000000	2.314416000	0.002155292
233.000000000	2.316100000	0.002160873
234.000000000	2.317897000	0.002166245
235.000000000	2.319880000	0.002172293
236.000000000	2.321374000	0.002177648
237.000000000	2.323284000	0.002183367
238.000000000	2.325192000	0.002188821
239.000000000	2.326863000	0.002194026
240.000000000	2.328767000	0.002199836
241.000000000	2.330716000	0.002205205
242.000000000	2.332309000	0.002210470
243.000000000	2.334226000	0.002215889
244.000000000	2.336046000	0.002221082
245.000000000	2.337653000	0.002226432
246.000000000	2.339189000	0.002231723
247.000000000	2.340805000	0.002237017
248.000000000	2.342143000	0.002241470
249.000000000	2.343608000	0.002247264
250.000000000	2.345310000	0.002252412
251.000000000	2.346474000	0.002257488
252.000000000	2.347852000	0.002262523
253.000000000	2.349386000	0.002267727
254.000000000	2.350633000	0.002272582
255.000000000	2.351989000	0.002277650
256.000000000	2.353540000	0.002282819
257.000000000	2.355340000	0.002287046
258.000000000	2.356725000	0.002292280
259.000000000	2.358737000	0.002297424
260.000000000	2.360155000	0.002301924
261.000000000	2.361651000	0.002306797
262.000000000	2.363397000	0.002311557
263.000000000	2.365061000	0.002316393
264.000000000	2.366456000	0.002321037
265.000000000	2.368249000	0.002325806
266.000000000	2.369594000	0.002330299
267.000000000	2.371048000	0.002334824
268.000000000	2.372580000	0.002339531
269.000000000	2.373990000	0.002343840
270.000000000	2.375225000	0.002348236
271.000000000	2.376858000	0.002352629
272.000000000	2.378270000	0.002357154
273.000000000	2.379844000	0.002361407
274.000000000	2.381601000	0.002365973
275.000000000	2.383137000	0.002370181
276.000000000	2.384859000	0.002374295
277.000000000	2.386375000	0.002378556
278.000000000	2.388197000	0.002382655
279.000000000	2.390199000	0.002386749
280.000000000	2.391965000	0.002390940
281.000000000	2.393789000	0.002395078
282.000000000	2.395269000	0.002398852
283.000000000	2.396988000	0.002403005
284.000000000	2.398326000	0.002406653
285.000000000	2.399781000	0.002410823
286.000000000	2.401217000	0.002414942
287.000000000	2.403024000	0.002418787
288.000000000	2.404259000	0.002422626
289.000000000	2.405398000	0.002426135
290.000000000	2.406431000	0.002430321
291.000000000	2.407397000	0.002433924
292.000000000	2.408535000	0.002437621
293.000000000	2.410166000	0.002441548
294.000000000	2.411917000	0.002445092
295.000000000	2.413537000	0.002448390
296.000000000	2.415307000	0.002452291
297.000000000	2.417271000	0.002455687
298.000000000	2.418959000	0.002458720
299.000000000	2.420644000	0.002462532
300.000000000	2.422128000	0.002466049
301.000000000	2.423702000	0.002469209
302.000000000	2.425054000	0.002472672
303.000000000	2.426828000	0.002475957
304.000000000	2.428361000	0.002479048
305.000000000	2.430072000	0.002482599
306.000000000	2.431973000	0.002485665
307.000000000	2.433828000	0.002488571
308.000000000	2.435595000	0.002492149
309.000000000	2.437200000	0.002495108
310.000000000	2.438808000	0.002498112
311.000000000	2.440638000	0.002501306
312.000000000	2.442300000	0.002504234
313.000000000	2.444001000	0.002507249
314.000000000	2.445782000	0.002510375
315.000000000	2.447146000	0.002513342
316.000000000	2.448402000	0.002516032
317.000000000	2.450165000	0.002519309
318.000000000	2.451951000	0.002522142
319.000000000	2.453655000	0.002524782
320.000000000	2.455122000	0.002527823
321.000000000	2.456463000	0.002530832
322.000000000	2.457237000	0.002533552
323.000000000	2.458324000	0.002536400
324.000000000	2.459717000	0.002539341
325.000000000	2.461002000	0.002541743
326.000000000	2.462240000	0.002544652
327.000000000	2.463596000	0.002547346
328.000000000	2.464706000	0.002549828
329.000000000	2.466453000	0.002552453
330.000000000	2.468015000	0.002555158
331.000000000	2.469467000	0.002557488
332.000000000	2.471038000	0.002560042
333.000000000	2.472880000	0.002562613
334.000000000	2.474346000	0.002564969
335.000000000	2.476282000	0.002567426
336.000000000	2.478570000	0.002569836
337.000000000	2.480531000	0.002572054
338.000000000	2.482786000	0.002574179
339.000000000	2.484811000	0.002576588
340.000000000	2.486408000	0.002578734
341.000000000	2.488271000	0.002580915
342.000000000	2.490649000	0.002583192
343.000000000	2.491792000	0.002585035
344.000000000	2.493564000	0.002587360
345.000000000	2.494906000	0.002589331
346.000000000	2.496272000	0.002591206
347.000000000	2.497955000	0.002593351
348.000000000	2.499702000	0.002595259
349.000000000	2.501405000	0.002596923
350.000000000	2.503340000	0.002598974
351.000000000	2.505045000	0.002600659
352.000000000	2.506691000	0.002602181
353.000000000	2.508666000	0.002603903
354.000000000	2.511600000	0.002604926
355.000000000	2.513825000	0.002606175
356.000000000	2.516158000	0.002607706
357.000000000	2.517876000	0.002609385
358.000000000	2.519552000	0.002610897
359.000000000	2.521220000	0.002612592
360.000000000	2.521870000	0.002614320
361.000000000	2.521160000	0.002616255
362.000000000	2.521666000	0.002618226
363.000000000	2.522410000	0.002619930
364.000000000	2.523384000	0.002621446
365.000000000	2.525041000	0.002623008
366.000000000	2.526561000	0.002624285
367.000000000	2.527277000	0.002625640
368.000000000	2.528684000	0.002627088
369.000000000	2.529914000	0.002628189
370.000000000	2.531135000	0.002629266
371.000000000	2.532773000	0.002630526
372.000000000	2.533868000	0.002631328
373.000000000	2.534823000	0.002632313
374.000000000	2.535689000	0.002633334
375.000000000	2.536408000	0.002634225
376.000000000	2.537054000	0.002635044
377.000000000	2.538417000	0.002635859
378.000000000	2.539199000	0.002636575
379.000000000	2.540285000	0.002637413
380.000000000	2.541402000	0.002638418
381.000000000	2.543485000	0.002638977
382.000000000	2.545034000	0.002639348
383.000000000	2.548663000	0.002639716
384.000000000	2.550470000	0.002640000
385.000000000	2.552839000	0.002640154
386.000000000	2.555404000	0.002640434
387.000000000	2.558600000	0.002640299
388.000000000	2.561416000	0.002640108
389.000000000	2.564825000	0.002640024
390.000000000	2.567131000	0.002639577
391.000000000	2.570189000	0.002639478
392.000000000	2.571946000	0.002639410
393.000000000	2.574127000	0.002639038
394.000000000	2.575738000	0.002638987
395.000000000	2.577472000	0.002638561
396.000000000	2.578811000	0.002638345
397.000000000	2.580380000	0.002638553
398.000000000	2.581101000	0.002638202
399.000000000	2.581390000	0.002637745
400.000000000	2.583666000	0.002636910
401.000000000	2.587835000	0.002636061
402.000000000	2.588906000	0.002635886
403.000000000	2.590715000	0.002635682
404.000000000	2.591981000	0.002634941
405.000000000	2.593627000	0.002634457
406.000000000	2.594577000	0.002634013
407.000000000	2.596098000	0.002633499
408.000000000	2.597166000	0.002632990
409.000000000	2.598956000	0.002632365
410.000000000	2.599895000	0.002631627
411.000000000	2.601572000	0.002631074
412.000000000	2.603300000	0.002630147
413.000000000	2.605100000	0.002629083
414.000000000	2.607159000	0.002628168
415.000000000	2.608953000	0.002626988
416.000000000	2.609813000	0.002625774
417.000000000	2.611072000	0.002624809
418.000000000	2.611458000	0.002623584
419.000000000	2.612205000	0.002622400
420.000000000	2.612845000	0.002621319
421.000000000	2.613272000	0.002620068
422.000000000	2.613390000	0.002618779
423.000000000	2.613755000	0.002617804
424.000000000	2.614749000	0.002616837
425.000000000	2.614928000	0.002615694
426.000000000	2.614462000	0.002614671
427.000000000	2.614499000	0.002613387
428.000000000	2.614911000	0.002611784
429.000000000	2.615242000	0.002610418
430.000000000	2.615955000	0.002608878
431.000000000	2.616070000	0.002607328
432.000000000	2.617671000	0.002605716
433.000000000	2.618438000	0.002604178
434.000000000	2.617397000	0.002603713
435.000000000	2.617776000	0.002602440
436.000000000	2.618484000	0.002601021
437.000000000	2.619416000	0.002599219
438.000000000	2.622595000	0.002597582
439.000000000	2.623487000	0.002595902
440.000000000	2.626747000	0.002594111
441.000000000	2.628054000	0.002592275
442.000000000	2.631437000	0.002590269
443.000000000	2.632862000	0.002588020
444.000000000	2.636025000	0.002586195
445.000000000	2.638139000	0.002583982
446.000000000	2.641042000	0.002581474
447.000000000	2.641600000	0.002579704
448.000000000	2.643181000	0.002577443
449.000000000	2.643831000	0.002575296
450.000000000	2.645538000	0.002573374
451.000000000	2.648043000	0.002571678
452.000000000	2.643753000	0.002571808
453.000000000	2.642853000	0.002570022
454.000000000	2.642461000	0.002568302
455.000000000	2.643022000	0.002566519
456.000000000	2.642833000	0.002564547
457.000000000	2.642019000	0.002562728
458.000000000	2.641948000	0.002560888
459.000000000	2.642666000	0.002558610
460.000000000	2.643960000	0.002556226
461.000000000	2.646239000	0.002553778
462.000000000	2.647111000	0.002551711
463.000000000	2.650814000	0.002548989
464.000000000	2.652441000	0.002546565
465.000000000	2.655362000	0.002543603
466.000000000	2.658128000	0.002540847
467.000000000	2.660609000	0.002538420
468.000000000	2.663444000	0.002535702
469.000000000	2.667303000	0.002532768
470.000000000	2.670210000	0.002530151
471.000000000	2.671480000	0.002527556
472.000000000	2.672416000	0.002525288
473.000000000	2.674740000	0.002522955
474.000000000	2.675233000	0.002520608
475.000000000	2.676995000	0.002518306
476.000000000	2.674986000	0.002516114
477.000000000	2.677185000	0.002513602
478.000000000	2.676285000	0.002511283
479.000000000	2.679863000	0.002508995
480.000000000	2.683030000	0.002506230
481.000000000	2.682991000	0.002503740
482.000000000	2.684136000	0.002501590
483.000000000	2.685939000	0.002498996
484.000000000	2.684759000	0.002496596
485.000000000	2.683460000	0.002494351
486.000000000	2.687896000	0.002492157
487.000000000	2.687215000	0.002490199
488.000000000	2.690424000	0.002488023
489.000000000	2.691798000	0.002485881
490.000000000	2.695172000	0.002484043
491.000000000	2.693332000	0.002481732
492.000000000	2.694016000	0.002479129
493.000000000	2.694369000	0.002476891
494.000000000	2.697244000	0.002474263
495.000000000	2.703019000	0.002471285
496.000000000	2.700646000	0.002468414
497.000000000	2.698725000	0.002465792
498.000000000	2.705748000	0.002462445
499.000000000	2.710345000	0.002459029
500.000000000	2.713436000	0.002455437
