Current (mA)	Voltage (V)	Power (mW)
-5.000000000	-5.000356000	-0.000001850
-4.000000000	-5.000365000	-0.000000976
-3.000000000	-5.000365000	-0.000000904
-2.000000000	-3.759284000	-0.000000542
-1.000000000	-1.952349000	-0.000000644
0.000000000	0.000999161	0.000000016
1.000000000	1.664942000	0.000000359
2.000000000	1.758323000	0.000012514
3.000000000	1.790143000	0.000031030
4.000000000	1.814081000	0.000048740
5.000000000	1.834749000	0.000065871
6.000000000	1.853686000	0.000083169
7.000000000	1.871377000	0.000099669
8.000000000	1.888198000	0.000116080
9.000000000	1.904521000	0.000131995
10.000000000	1.920326000	0.000147419
11.000000000	1.935715000	0.000161380
12.000000000	1.950885000	0.000177608
13.000000000	1.965754000	0.000192183
14.000000000	1.980455000	0.000205596
15.000000000	1.994984000	0.000220772
16.000000000	2.009373000	0.000234663
17.000000000	2.023537000	0.000248449
18.000000000	2.037727000	0.000261878
19.000000000	2.051736000	0.000275066
20.000000000	2.065595000	0.000288069
21.000000000	2.079571000	0.000300949
22.000000000	2.093393000	0.000313635
23.000000000	2.107656000	0.000324330
24.000000000	2.121561000	0.000338392
25.000000000	2.135170000	0.000350426
26.000000000	2.148736000	0.000362489
27.000000000	2.162510000	0.000373258
28.000000000	2.176063000	0.000385830
29.000000000	2.189688000	0.000397469
30.000000000	2.203304000	0.000408828
31.000000000	2.216856000	0.000420104
32.000000000	2.230356000	0.000430986
33.000000000	2.243982000	0.000442200
34.000000000	2.257563000	0.000453095
35.000000000	2.270941000	0.000463947
36.000000000	2.284630000	0.000474744
37.000000000	2.298076000	0.000485265
38.000000000	2.311437000	0.000495725
39.000000000	2.324846000	0.000506269
40.000000000	2.338455000	0.000516587
41.000000000	2.351569000	0.000525887
42.000000000	2.364935000	0.000536879
43.000000000	2.378433000	0.000546892
44.000000000	2.391663000	0.000556825
45.000000000	2.405058000	0.000566609
46.000000000	2.418644000	0.000576467
47.000000000	2.432393000	0.000586076
48.000000000	2.446069000	0.000595787
49.000000000	2.460508000	0.000605296
50.000000000	2.474893000	0.000614715
51.000000000	2.487432000	0.000624129
52.000000000	2.497447000	0.000633534
53.000000000	2.507634000	0.000642774
54.000000000	2.516392000	0.000652033
55.000000000	2.524933000	0.000660787
56.000000000	2.534400000	0.000670369
57.000000000	2.543826000	0.000679404
58.000000000	2.553795000	0.000688453
59.000000000	2.563205000	0.000697353
60.000000000	2.573667000	0.000706177
61.000000000	2.583071000	0.000715117
62.000000000	2.591810000	0.000723895
63.000000000	2.598872000	0.000732622
64.000000000	2.605741000	0.000740578
65.000000000	2.703799000	0.000749130
66.000000000	2.772485000	0.000757205
67.000000000	2.663610000	0.000766403
68.000000000	2.600974000	0.000775722
69.000000000	2.602467000	0.000784164
70.000000000	2.610636000	0.000792670
71.000000000	2.617700000	0.000801114
72.000000000	2.620484000	0.000809468
73.000000000	2.627393000	0.000817789
74.000000000	2.634002000	0.000826068
75.000000000	2.762592000	0.000833010
76.000000000	2.768162000	0.000841285
77.000000000	2.720544000	0.000849637
78.000000000	2.725888000	0.000857102
79.000000000	2.734401000	0.000865630
80.000000000	2.752955000	0.000873523
81.000000000	2.766748000	0.000881455
82.000000000	2.775453000	0.000889247
83.000000000	2.753897000	0.000897807
84.000000000	2.766181000	0.000905776
85.000000000	2.894781000	0.000912504
86.000000000	2.853601000	0.000920301
87.000000000	2.852667000	0.000927286
88.000000000	2.851263000	0.000935588
89.000000000	2.886024000	0.000942851
90.000000000	2.886400000	0.000950479
91.000000000	2.911830000	0.000958019
92.000000000	2.905840000	0.000965411
93.000000000	2.903977000	0.000973350
94.000000000	2.908402000	0.000980841
95.000000000	2.908824000	0.000988440
96.000000000	2.909580000	0.000995936
97.000000000	2.909665000	0.001003099
98.000000000	2.908021000	0.001011338
99.000000000	2.864665000	0.001019212
100.000000000	2.869281000	0.001026663
101.000000000	2.874422000	0.001034042
102.000000000	2.880939000	0.001041420
103.000000000	2.874461000	0.001048872
104.000000000	2.883377000	0.001056050
105.000000000	2.890771000	0.001063321
106.000000000	2.870230000	0.001068142
107.000000000	2.892067000	0.001077186
108.000000000	2.907734000	0.001084444
109.000000000	2.884359000	0.001093359
110.000000000	2.840744000	0.001101116
111.000000000	2.844844000	0.001108272
112.000000000	2.849655000	0.001115532
113.000000000	2.855733000	0.001122569
114.000000000	2.863323000	0.001129631
115.000000000	2.873073000	0.001135912
116.000000000	2.884880000	0.001143285
117.000000000	2.897332000	0.001150172
118.000000000	2.911715000	0.001156926
119.000000000	2.973325000	0.001162901
120.000000000	2.955195000	0.001169662
121.000000000	2.962244000	0.001176880
122.000000000	2.970203000	0.001183754
123.000000000	2.975101000	0.001190606
124.000000000	2.981070000	0.001197420
125.000000000	2.994427000	0.001203921
126.000000000	2.971521000	0.001211469
127.000000000	2.978387000	0.001218605
128.000000000	2.941742000	0.001226485
129.000000000	2.935345000	0.001233194
130.000000000	2.933547000	0.001240476
131.000000000	2.941329000	0.001247207
132.000000000	2.948794000	0.001253897
133.000000000	2.955860000	0.001260525
134.000000000	2.962647000	0.001267222
135.000000000	2.969818000	0.001273790
136.000000000	2.976168000	0.001280474
137.000000000	2.982849000	0.001287032
138.000000000	2.988618000	0.001293598
139.000000000	2.994892000	0.001299788
140.000000000	3.001410000	0.001306626
141.000000000	3.006362000	0.001313115
142.000000000	3.012217000	0.001319606
143.000000000	3.019854000	0.001326027
144.000000000	3.022182000	0.001332532
145.000000000	3.027468000	0.001338979
146.000000000	3.034894000	0.001345320
147.000000000	3.040672000	0.001351753
148.000000000	3.045136000	0.001357719
149.000000000	3.168356000	0.001359600
150.000000000	3.180306000	0.001364874
151.000000000	3.141993000	0.001372810
152.000000000	3.121621000	0.001380220
153.000000000	3.096213000	0.001387940
154.000000000	3.097481000	0.001394576
155.000000000	3.101228000	0.001400979
156.000000000	3.105629000	0.001407252
157.000000000	3.109761000	0.001413055
158.000000000	3.111176000	0.001419987
159.000000000	3.110924000	0.001426351
160.000000000	3.115445000	0.001432524
161.000000000	3.119047000	0.001438654
162.000000000	3.124454000	0.001444762
163.000000000	3.128215000	0.001450952
164.000000000	3.130684000	0.001457166
165.000000000	3.137028000	0.001463235
166.000000000	3.144323000	0.001469269
167.000000000	3.150087000	0.001475247
168.000000000	3.141364000	0.001481864
169.000000000	3.147233000	0.001487833
170.000000000	3.156904000	0.001493674
171.000000000	3.167231000	0.001499158
172.000000000	3.177955000	0.001504975
173.000000000	3.188075000	0.001510696
174.000000000	3.198756000	0.001516331
175.000000000	3.209649000	0.001521617
176.000000000	3.209285000	0.001527858
177.000000000	3.213328000	0.001533677
178.000000000	3.216604000	0.001539572
179.000000000	3.230613000	0.001545200
180.000000000	3.238355000	0.001550753
181.000000000	3.256551000	0.001556118
182.000000000	3.237500000	0.001563010
183.000000000	3.242908000	0.001569125
184.000000000	3.224128000	0.001575635
185.000000000	3.256871000	0.001580307
186.000000000	3.248188000	0.001586589
187.000000000	3.250152000	0.001591910
188.000000000	3.251997000	0.001598332
189.000000000	3.269601000	0.001603336
190.000000000	3.277156000	0.001609784
191.000000000	3.261190000	0.001616816
192.000000000	3.253672000	0.001623069
193.000000000	3.255491000	0.001628980
194.000000000	3.257354000	0.001634809
195.000000000	3.263249000	0.001640504
196.000000000	3.267881000	0.001669171
197.000000000	3.272508000	0.001659287
198.000000000	3.282621000	0.001661694
199.000000000	3.294819000	0.001665477
200.000000000	3.307090000	0.001670014
201.000000000	3.333491000	0.001673464
202.000000000	3.334144000	0.001679190
203.000000000	3.336857000	0.001684592
204.000000000	3.352327000	0.001688986
205.000000000	3.351091000	0.001694669
206.000000000	3.345502000	0.001700980
207.000000000	3.350485000	0.001706304
208.000000000	3.358004000	0.001711242
209.000000000	3.362436000	0.001716713
210.000000000	3.366020000	0.001722202
211.000000000	3.372398000	0.001727215
212.000000000	3.376884000	0.001732612
213.000000000	3.375702000	0.001738229
214.000000000	3.382558000	0.001743189
215.000000000	3.389728000	0.001748103
216.000000000	3.401632000	0.001752726
217.000000000	3.393177000	0.001758758
218.000000000	3.398300000	0.001764087
219.000000000	3.401860000	0.001768974
220.000000000	3.411767000	0.001773853
221.000000000	3.421135000	0.001778589
222.000000000	3.426628000	0.001783777
223.000000000	3.430673000	0.001789021
224.000000000	3.434136000	0.001794317
225.000000000	3.445527000	0.001799020
226.000000000	3.449308000	0.001803890
227.000000000	3.457063000	0.001808840
228.000000000	3.456746000	0.001814340
229.000000000	3.458426000	0.001819604
230.000000000	3.463829000	0.001824447
231.000000000	3.467755000	0.001829588
232.000000000	3.471265000	0.001834689
233.000000000	3.475013000	0.001839900
234.000000000	3.479030000	0.001844837
235.000000000	3.485455000	0.001849389
236.000000000	3.492929000	0.001854173
237.000000000	3.497892000	0.001858918
238.000000000	3.496079000	0.001863789
239.000000000	3.504733000	0.001868402
240.000000000	3.508289000	0.001873085
241.000000000	3.512547000	0.001877830
242.000000000	3.517173000	0.001882833
243.000000000	3.517247000	0.001887940
244.000000000	3.520757000	0.001892983
245.000000000	3.525259000	0.001897759
246.000000000	3.529839000	0.001902701
247.000000000	3.535185000	0.001907240
248.000000000	3.540444000	0.001911930
249.000000000	3.529583000	0.001917459
250.000000000	3.531169000	0.001922132
251.000000000	3.554125000	0.001925907
252.000000000	3.557403000	0.001930470
253.000000000	3.544357000	0.001935576
254.000000000	3.569368000	0.001940226
255.000000000	3.568186000	0.001944638
256.000000000	3.573933000	0.001949191
257.000000000	3.576188000	0.001953944
258.000000000	3.580649000	0.001958897
259.000000000	3.584902000	0.001963512
260.000000000	3.591970000	0.001968035
261.000000000	3.595748000	0.001972610
262.000000000	3.601889000	0.001976968
263.000000000	3.596014000	0.001982168
264.000000000	3.611593000	0.001986688
265.000000000	3.609995000	0.001990893
266.000000000	3.612851000	0.001995360
267.000000000	3.613229000	0.002000329
268.000000000	3.621794000	0.002005374
269.000000000	3.629741000	0.002009423
270.000000000	3.630981000	0.002014692
271.000000000	3.622003000	0.002019037
272.000000000	3.628769000	0.002023659
273.000000000	3.638921000	0.002027997
274.000000000	3.644228000	0.002032408
275.000000000	3.656363000	0.002035908
276.000000000	3.646032000	0.002041454
277.000000000	3.665454000	0.002045125
278.000000000	3.661319000	0.002050018
279.000000000	3.661205000	0.002054777
280.000000000	3.674781000	0.002057985
281.000000000	3.664877000	0.002063584
282.000000000	3.679032000	0.002067223
283.000000000	3.669939000	0.002072606
284.000000000	3.687593000	0.002075593
285.000000000	3.694314000	0.002079848
286.000000000	3.692846000	0.002084847
287.000000000	3.694071000	0.002089555
288.000000000	3.707665000	0.002092957
289.000000000	3.705218000	0.002097971
290.000000000	3.716820000	0.002101339
291.000000000	3.710890000	0.002106297
292.000000000	3.726936000	0.002110567
293.000000000	3.726103000	0.002114010
294.000000000	3.723285000	0.002118414
295.000000000	3.738527000	0.002122127
296.000000000	3.739028000	0.002126415
297.000000000	3.737702000	0.002131014
298.000000000	3.747891000	0.002134188
299.000000000	3.760190000	0.002137559
300.000000000	3.748571000	0.002143088
301.000000000	3.759622000	0.002146375
302.000000000	3.770408000	0.002149427
303.000000000	3.762318000	0.002155177
304.000000000	3.772489000	0.002158253
305.000000000	3.782422000	0.002161752
306.000000000	3.789614000	0.002165397
307.000000000	3.792123000	0.002169641
308.000000000	3.789132000	0.002174633
309.000000000	3.796635000	0.002177686
310.000000000	3.803539000	0.002181050
311.000000000	3.795238000	0.002185579
312.000000000	3.808166000	0.002189214
313.000000000	3.814617000	0.002192352
314.000000000	3.819902000	0.002196119
315.000000000	3.816774000	0.002200131
316.000000000	3.820092000	0.002203952
317.000000000	3.832549000	0.002207418
318.000000000	3.829282000	0.002211401
319.000000000	3.830181000	0.002215832
320.000000000	3.841906000	0.002219195
321.000000000	3.846989000	0.002222736
322.000000000	3.847585000	0.002226804
323.000000000	3.856527000	0.002229779
324.000000000	3.850444000	0.002234349
325.000000000	3.861265000	0.002237283
326.000000000	3.859966000	0.002241705
327.000000000	3.867766000	0.002244770
328.000000000	3.877002000	0.002247907
329.000000000	3.876041000	0.002251872
330.000000000	3.887412000	0.002255677
331.000000000	3.890682000	0.002259060
332.000000000	3.885787000	0.002263071
333.000000000	3.897138000	0.002265821
334.000000000	3.902113000	0.002268512
335.000000000	3.908407000	0.002272762
336.000000000	3.909803000	0.002276563
337.000000000	3.910188000	0.002279841
338.000000000	3.908660000	0.002284680
339.000000000	3.912296000	0.002288127
340.000000000	3.918831000	0.002291264
341.000000000	3.926432000	0.002294161
342.000000000	3.932323000	0.002297194
343.000000000	3.937275000	0.002300266
344.000000000	3.943539000	0.002303590
345.000000000	3.947200000	0.002306799
346.000000000	3.953520000	0.002309880
347.000000000	3.952995000	0.002313852
348.000000000	3.962317000	0.002317127
349.000000000	3.965188000	0.002320231
350.000000000	3.963050000	0.002324473
351.000000000	3.961216000	0.002328179
352.000000000	3.978228000	0.002330913
353.000000000	3.975447000	0.002334841
354.000000000	3.984030000	0.002337393
355.000000000	3.990480000	0.002340605
356.000000000	3.983004000	0.002344856
357.000000000	3.996460000	0.002347044
358.000000000	3.991608000	0.002351551
359.000000000	4.004404000	0.002353228
360.000000000	4.000650000	0.002357225
361.000000000	4.009603000	0.002359644
362.000000000	4.020197000	0.002362787
363.000000000	4.019959000	0.002365373
364.000000000	4.028218000	0.002368216
365.000000000	4.032758000	0.002370340
366.000000000	4.029282000	0.002374232
367.000000000	4.033089000	0.002378076
368.000000000	4.041461000	0.002380111
369.000000000	4.051574000	0.002382380
370.000000000	4.047018000	0.002387019
371.000000000	4.056612000	0.002388569
372.000000000	4.068323000	0.002391503
373.000000000	4.059139000	0.002395741
374.000000000	4.069490000	0.002397409
375.000000000	4.077435000	0.002399777
376.000000000	4.081843000	0.002402230
377.000000000	4.086483000	0.002405040
378.000000000	4.077125000	0.002410666
379.000000000	4.083607000	0.002413425
380.000000000	4.092408000	0.002415294
381.000000000	4.099944000	0.002417210
382.000000000	4.106678000	0.002419179
383.000000000	4.113000000	0.002421323
384.000000000	4.115317000	0.002424151
385.000000000	4.104233000	0.002429566
386.000000000	4.116643000	0.002430849
387.000000000	4.126125000	0.002432710
388.000000000	4.123613000	0.002435774
389.000000000	4.132108000	0.002437844
390.000000000	4.135739000	0.002440096
391.000000000	4.129100000	0.002444792
392.000000000	4.136448000	0.002446775
393.000000000	4.145039000	0.002447946
394.000000000	4.139925000	0.002452337
395.000000000	4.149345000	0.002453852
396.000000000	4.158758000	0.002455355
397.000000000	4.149704000	0.002459976
398.000000000	4.161413000	0.002461232
399.000000000	4.168775000	0.002462926
400.000000000	4.174442000	0.002465002
401.000000000	4.167802000	0.002469701
402.000000000	4.176025000	0.002470899
403.000000000	4.175401000	0.002473908
404.000000000	4.182836000	0.002475727
405.000000000	4.188522000	0.002477069
406.000000000	4.194825000	0.002478691
407.000000000	4.194679000	0.002482224
408.000000000	4.196650000	0.002484254
409.000000000	4.204778000	0.002485627
410.000000000	4.208664000	0.002487578
411.000000000	4.211333000	0.002489595
412.000000000	4.218505000	0.002492963
413.000000000	4.210663000	0.002496540
414.000000000	4.217737000	0.002497856
415.000000000	4.228441000	0.002498655
416.000000000	4.224121000	0.002502270
417.000000000	4.230844000	0.002503825
418.000000000	4.239037000	0.002504903
419.000000000	4.246512000	0.002506512
420.000000000	4.242836000	0.002510378
421.000000000	4.250092000	0.002511622
422.000000000	4.256567000	0.002512827
423.000000000	4.260437000	0.002514780
424.000000000	4.268759000	0.002516576
425.000000000	4.271005000	0.002518797
426.000000000	4.271694000	0.002520854
427.000000000	4.274540000	0.002522846
428.000000000	4.278906000	0.002524097
429.000000000	4.269221000	0.002530167
430.000000000	4.277565000	0.002530656
431.000000000	4.287514000	0.002530780
432.000000000	4.283933000	0.002534792
433.000000000	4.289708000	0.002535728
434.000000000	4.295786000	0.002536658
435.000000000	4.302325000	0.002537393
436.000000000	4.307896000	0.002538969
437.000000000	4.313820000	0.002540119
438.000000000	4.315444000	0.002542196
439.000000000	4.319601000	0.002543974
440.000000000	4.322352000	0.002545418
441.000000000	4.322481000	0.002547758
442.000000000	4.325265000	0.002549732
443.000000000	4.329526000	0.002551413
444.000000000	4.333999000	0.002553003
445.000000000	4.337321000	0.002554477
446.000000000	4.341642000	0.002556072
447.000000000	4.352240000	0.002558639
448.000000000	4.345054000	0.002560712
449.000000000	4.351390000	0.002561427
450.000000000	4.359034000	0.002562275
451.000000000	4.360532000	0.002563690
452.000000000	4.366424000	0.002565020
453.000000000	4.366971000	0.002566848
454.000000000	4.374484000	0.002568008
455.000000000	4.377504000	0.002569462
456.000000000	4.384636000	0.002570655
457.000000000	4.381636000	0.002573147
458.000000000	4.385116000	0.002573962
459.000000000	4.390525000	0.002575085
460.000000000	4.390892000	0.002577244
461.000000000	4.394475000	0.002578706
462.000000000	4.399799000	0.002579661
463.000000000	4.404183000	0.002581108
464.000000000	4.406893000	0.002582599
465.000000000	4.408807000	0.002584358
466.000000000	4.413458000	0.002585657
467.000000000	4.416380000	0.002587025
468.000000000	4.419047000	0.002588523
469.000000000	4.423503000	0.002589600
470.000000000	4.427626000	0.002590600
471.000000000	4.431905000	0.002591768
472.000000000	4.434955000	0.002593109
473.000000000	4.438060000	0.002594347
474.000000000	4.440317000	0.002595659
475.000000000	4.444648000	0.002596464
476.000000000	4.447314000	0.002597690
477.000000000	4.450238000	0.002598985
478.000000000	4.453860000	0.002600133
479.000000000	4.456629000	0.002601232
480.000000000	4.460193000	0.002602334
481.000000000	4.463415000	0.002603486
482.000000000	4.466965000	0.002604344
483.000000000	4.470538000	0.002605406
484.000000000	4.473691000	0.002606471
485.000000000	4.477213000	0.002607498
486.000000000	4.480885000	0.002608425
487.000000000	4.483663000	0.002609475
488.000000000	4.487490000	0.002610274
489.000000000	4.491339000	0.002611276
490.000000000	4.494418000	0.002612341
491.000000000	4.496755000	0.002613334
492.000000000	4.499707000	0.002614323
493.000000000	4.502348000	0.002615178
494.000000000	4.504156000	0.002616351
495.000000000	4.506376000	0.002617341
496.000000000	4.508592000	0.002618331
497.000000000	4.511488000	0.002618989
498.000000000	4.514765000	0.002619562
499.000000000	4.516752000	0.002620840
500.000000000	4.517887000	0.002622074
501.000000000	4.520485000	0.002622890
502.000000000	4.523372000	0.002623442
503.000000000	4.526510000	0.002623751
504.000000000	4.530270000	0.002623890
505.000000000	4.535625000	0.002624003
506.000000000	4.537902000	0.002624812
507.000000000	4.540411000	0.002625670
508.000000000	4.542940000	0.002626400
509.000000000	4.546229000	0.002627040
510.000000000	4.549006000	0.002627807
511.000000000	4.551949000	0.002628575
512.000000000	4.554511000	0.002629188
513.000000000	4.557670000	0.002629869
514.000000000	4.560893000	0.002630375
515.000000000	4.563761000	0.002631255
516.000000000	4.565431000	0.002632095
517.000000000	4.567760000	0.002632643
518.000000000	4.570020000	0.002633424
519.000000000	4.572556000	0.002634314
520.000000000	4.575584000	0.002634855
521.000000000	4.578332000	0.002635606
522.000000000	4.579721000	0.002636688
523.000000000	4.582194000	0.002637166
524.000000000	4.585562000	0.002637488
525.000000000	4.588976000	0.002637703
526.000000000	4.592257000	0.002637845
527.000000000	4.595189000	0.002638358
528.000000000	4.598344000	0.002638983
529.000000000	4.601237000	0.002639236
530.000000000	4.604567000	0.002639558
531.000000000	4.607665000	0.002639995
532.000000000	4.610691000	0.002640241
533.000000000	4.613525000	0.002640566
534.000000000	4.616428000	0.002640754
535.000000000	4.619444000	0.002641263
536.000000000	4.621359000	0.002641970
537.000000000	4.623041000	0.002642587
538.000000000	4.625558000	0.002643066
539.000000000	4.629151000	0.002642900
540.000000000	4.632098000	0.002642887
541.000000000	4.635564000	0.002642650
542.000000000	4.638606000	0.002642714
543.000000000	4.640890000	0.002642844
544.000000000	4.643652000	0.002642827
545.000000000	4.646192000	0.002642810
546.000000000	4.649380000	0.002642669
547.000000000	4.652444000	0.002642461
548.000000000	4.655357000	0.002642611
549.000000000	4.658622000	0.002642360
550.000000000	4.662488000	0.002642157
551.000000000	4.665025000	0.002642178
552.000000000	4.667503000	0.002642530
553.000000000	4.669753000	0.002642725
554.000000000	4.672390000	0.002642680
555.000000000	4.675544000	0.002642503
556.000000000	4.678787000	0.002642212
557.000000000	4.681816000	0.002641987
558.000000000	4.685157000	0.002641688
559.000000000	4.687936000	0.002641402
560.000000000	4.691744000	0.002641079
561.000000000	4.695184000	0.002640773
562.000000000	4.697818000	0.002641536
563.000000000	4.698952000	0.002642010
564.000000000	4.701914000	0.002641760
565.000000000	4.705753000	0.002641300
566.000000000	4.708666000	0.002641008
567.000000000	4.710598000	0.002641383
568.000000000	4.711802000	0.002641912
569.000000000	4.712325000	0.002642473
570.000000000	4.715106000	0.002642425
571.000000000	4.717732000	0.002642418
572.000000000	4.719780000	0.002642269
573.000000000	4.722292000	0.002642450
574.000000000	4.722204000	0.002643383
575.000000000	4.723847000	0.002643482
576.000000000	4.725060000	0.002643948
577.000000000	4.728111000	0.002643398
578.000000000	4.731287000	0.002642773
579.000000000	4.734345000	0.002641899
580.000000000	4.737121000	0.002641079
581.000000000	4.739863000	0.002640362
582.000000000	4.743146000	0.002639740
583.000000000	4.745440000	0.002639056
584.000000000	4.748489000	0.002638489
585.000000000	4.751794000	0.002637828
586.000000000	4.755054000	0.002637035
587.000000000	4.758389000	0.002636090
588.000000000	4.762153000	0.002635216
589.000000000	4.765700000	0.002634080
590.000000000	4.768180000	0.002633101
591.000000000	4.771484000	0.002632049
592.000000000	4.774233000	0.002631291
593.000000000	4.777689000	0.002630321
594.000000000	4.779176000	0.002630232
595.000000000	4.782236000	0.002629380
596.000000000	4.785562000	0.002628400
597.000000000	4.788705000	0.002627351
598.000000000	4.792020000	0.002626272
599.000000000	4.795243000	0.002625270
600.000000000	4.797462000	0.002624418
601.000000000	4.799600000	0.002623731
602.000000000	4.801619000	0.002623068
603.000000000	4.804373000	0.002622018
604.000000000	4.807920000	0.002620886
605.000000000	4.811378000	0.002619757
606.000000000	4.814967000	0.002618445
607.000000000	4.818617000	0.002617166
608.000000000	4.822697000	0.002615383
609.000000000	4.826919000	0.002613762
610.000000000	4.830630000	0.002612603
611.000000000	4.833797000	0.002611458
612.000000000	4.836431000	0.002610503
613.000000000	4.839615000	0.002609397
614.000000000	4.842748000	0.002608273
615.000000000	4.845888000	0.002607156
616.000000000	4.849505000	0.002605906
617.000000000	4.851601000	0.002604777
618.000000000	4.855019000	0.002603444
619.000000000	4.857753000	0.002602159
620.000000000	4.860809000	0.002600412
621.000000000	4.864537000	0.002598770
622.000000000	4.868692000	0.002595485
623.000000000	4.873286000	0.002595445
624.000000000	4.874696000	0.002595583
625.000000000	4.876536000	0.002594498
626.000000000	4.876538000	0.002594995
627.000000000	4.877896000	0.002594764
628.000000000	4.879004000	0.002594233
629.000000000	4.881578000	0.002593062
630.000000000	4.883548000	0.002591920
631.000000000	4.886122000	0.002590759
632.000000000	4.888724000	0.002589672
633.000000000	4.890674000	0.002588604
634.000000000	4.893653000	0.002587016
635.000000000	4.896914000	0.002585325
636.000000000	4.899881000	0.002583796
637.000000000	4.903347000	0.002582021
638.000000000	4.905437000	0.002581007
639.000000000	4.908411000	0.002579387
640.000000000	4.911168000	0.002577786
641.000000000	4.914181000	0.002576178
642.000000000	4.917349000	0.002574487
643.000000000	4.920433000	0.002572730
644.000000000	4.922562000	0.002571088
645.000000000	4.927055000	0.002569310
646.000000000	4.930912000	0.002567204
647.000000000	4.934974000	0.002564857
648.000000000	4.940357000	0.002561654
649.000000000	4.940015000	0.002562363
650.000000000	4.941731000	0.002561087
651.000000000	4.942774000	0.002560123
652.000000000	4.943238000	0.002560004
653.000000000	4.945462000	0.002558487
654.000000000	4.946801000	0.002557424
655.000000000	4.949930000	0.002555911
656.000000000	4.951984000	0.002554048
657.000000000	4.954945000	0.002552392
658.000000000	4.956955000	0.002550498
659.000000000	4.958885000	0.002549296
660.000000000	4.961489000	0.002547628
661.000000000	4.964049000	0.002545806
662.000000000	4.966527000	0.002544138
663.000000000	4.968566000	0.002542384
664.000000000	4.972245000	0.002539898
665.000000000	4.974314000	0.002538498
666.000000000	4.975004000	0.002537401
667.000000000	4.977894000	0.002535233
668.000000000	4.980764000	0.002533939
669.000000000	4.983371000	0.002532414
670.000000000	4.985631000	0.002530804
671.000000000	4.988590000	0.002528764
672.000000000	4.991728000	0.002526525
673.000000000	4.994075000	0.002524739
674.000000000	4.996274000	0.002522477
675.000000000	4.997260000	0.002520929
676.000000000	4.998782000	0.002518806
677.000000000	4.998831000	0.002518261
678.000000000	4.998789000	0.002517552
679.000000000	4.998823000	0.002517150
680.000000000	4.998819000	0.002516688
681.000000000	4.998792000	0.002516099
682.000000000	4.998794000	0.002515947
683.000000000	4.998816000	0.002515946
684.000000000	4.998801000	0.002515551
685.000000000	4.998784000	0.002514887
686.000000000	4.998775000	0.002514775
687.000000000	4.998787000	0.002514795
688.000000000	4.998812000	0.002514463
689.000000000	4.998807000	0.002514816
690.000000000	4.998686000	0.002515064
691.000000000	4.998816000	0.002515438
692.000000000	4.998812000	0.002515306
693.000000000	4.998742000	0.002515141
694.000000000	4.998765000	0.002515328
695.000000000	4.998789000	0.002514702
696.000000000	4.998802000	0.002514410
697.000000000	4.998799000	0.002514161
698.000000000	4.998774000	0.002514453
699.000000000	4.998732000	0.002514551
700.000000000	4.998827000	0.002514508
