Current (mA)	Voltage (V)	Power (mW)
-5.000000000	-5.000363000	-0.000001342
-4.000000000	-5.000340000	-0.000000466
-3.000000000	-5.000335000	-0.000000399
-2.000000000	-5.000326000	-0.000000401
-1.000000000	-5.000463000	-0.000000587
0.000000000	0.019965130	0.000000761
1.000000000	1.724508000	0.000006884
2.000000000	1.758143000	0.000028997
3.000000000	1.779040000	0.000049632
4.000000000	1.795560000	0.000068560
5.000000000	1.809764000	0.000086849
6.000000000	1.822567000	0.000104648
7.000000000	1.834411000	0.000121784
8.000000000	1.845552000	0.000138756
9.000000000	1.856091000	0.000155208
10.000000000	1.866254000	0.000170518
11.000000000	1.875998000	0.000185445
12.000000000	1.885494000	0.000201996
13.000000000	1.894724000	0.000216983
14.000000000	1.903741000	0.000231605
15.000000000	1.912575000	0.000245990
16.000000000	1.921212000	0.000260069
17.000000000	1.929770000	0.000274024
18.000000000	1.938118000	0.000287719
19.000000000	1.946364000	0.000301233
20.000000000	1.954473000	0.000314398
21.000000000	1.962461000	0.000327433
22.000000000	1.970353000	0.000340228
23.000000000	1.978212000	0.000352930
24.000000000	1.985899000	0.000364490
25.000000000	1.993584000	0.000377664
26.000000000	2.001176000	0.000389868
27.000000000	2.008712000	0.000401763
28.000000000	2.016141000	0.000413653
29.000000000	2.023563000	0.000425290
30.000000000	2.030840000	0.000436867
31.000000000	2.038095000	0.000448170
32.000000000	2.045357000	0.000459435
33.000000000	2.052463000	0.000470203
34.000000000	2.059576000	0.000481572
35.000000000	2.066691000	0.000492447
36.000000000	2.073735000	0.000503259
37.000000000	2.080665000	0.000513874
38.000000000	2.087654000	0.000524083
39.000000000	2.094542000	0.000534996
40.000000000	2.101973000	0.000544919
41.000000000	2.108863000	0.000555694
42.000000000	2.115717000	0.000565964
43.000000000	2.122321000	0.000575984
44.000000000	2.129193000	0.000586224
45.000000000	2.135971000	0.000596189
46.000000000	2.142320000	0.000606083
47.000000000	2.149251000	0.000615907
48.000000000	2.155779000	0.000625645
49.000000000	2.162218000	0.000635383
50.000000000	2.168688000	0.000645000
51.000000000	2.175375000	0.000654503
52.000000000	2.181750000	0.000663196
53.000000000	2.188236000	0.000673454
54.000000000	2.194788000	0.000682841
55.000000000	2.200988000	0.000692110
56.000000000	2.207464000	0.000701454
57.000000000	2.214012000	0.000710653
58.000000000	2.220334000	0.000719813
59.000000000	2.226435000	0.000728933
60.000000000	2.232826000	0.000738026
61.000000000	2.239008000	0.000746996
62.000000000	2.245198000	0.000755853
63.000000000	2.251620000	0.000764706
64.000000000	2.257831000	0.000773504
65.000000000	2.263911000	0.000782279
66.000000000	2.270177000	0.000791065
67.000000000	2.276333000	0.000799702
68.000000000	2.282339000	0.000808406
69.000000000	2.288404000	0.000816968
70.000000000	2.294688000	0.000825511
71.000000000	2.300569000	0.000833329
72.000000000	2.306576000	0.000842486
73.000000000	2.312835000	0.000850905
74.000000000	2.318773000	0.000859273
75.000000000	2.324702000	0.000867613
76.000000000	2.330903000	0.000875601
77.000000000	2.336777000	0.000884115
78.000000000	2.342600000	0.000892345
79.000000000	2.348684000	0.000900554
80.000000000	2.354481000	0.000908618
81.000000000	2.360517000	0.000916737
82.000000000	2.366465000	0.000924834
83.000000000	2.372394000	0.000932870
84.000000000	2.378124000	0.000940840
85.000000000	2.384193000	0.000948195
86.000000000	2.390072000	0.000956785
87.000000000	2.395747000	0.000964681
88.000000000	2.401544000	0.000972579
89.000000000	2.407454000	0.000980493
90.000000000	2.413136000	0.000987732
91.000000000	2.418906000	0.000996066
92.000000000	2.424977000	0.001003784
93.000000000	2.430546000	0.001011535
94.000000000	2.436366000	0.001019292
95.000000000	2.442030000	0.001026940
96.000000000	2.447788000	0.001034510
97.000000000	2.453368000	0.001042166
98.000000000	2.459290000	0.001049693
99.000000000	2.464820000	0.001056648
100.000000000	2.470527000	0.001064780
101.000000000	2.476237000	0.001072360
102.000000000	2.481985000	0.001079780
103.000000000	2.487510000	0.001087249
104.000000000	2.493291000	0.001094649
105.000000000	2.498937000	0.001102046
106.000000000	2.504172000	0.001107058
107.000000000	2.509962000	0.001116115
108.000000000	2.515172000	0.001123374
109.000000000	2.520959000	0.001130653
110.000000000	2.526676000	0.001137953
111.000000000	2.532289000	0.001145224
112.000000000	2.537696000	0.001152509
113.000000000	2.543555000	0.001159463
114.000000000	2.549186000	0.001166876
115.000000000	2.554555000	0.001174054
116.000000000	2.560371000	0.001181241
117.000000000	2.565830000	0.001188387
118.000000000	2.571526000	0.001195445
119.000000000	2.576862000	0.001202487
120.000000000	2.582507000	0.001209543
121.000000000	2.588017000	0.001216579
122.000000000	2.593796000	0.001223096
123.000000000	2.599330000	0.001230557
124.000000000	2.604686000	0.001237476
125.000000000	2.610273000	0.001244464
126.000000000	2.616092000	0.001251430
127.000000000	2.621477000	0.001258201
128.000000000	2.626829000	0.001265198
129.000000000	2.632449000	0.001272064
130.000000000	2.637823000	0.001278891
131.000000000	2.643253000	0.001285163
132.000000000	2.648623000	0.001292536
133.000000000	2.654191000	0.001299427
134.000000000	2.659420000	0.001306126
135.000000000	2.665007000	0.001312948
136.000000000	2.670294000	0.001319440
137.000000000	2.675759000	0.001326426
138.000000000	2.681304000	0.001333149
139.000000000	2.686606000	0.001339732
140.000000000	2.691921000	0.001346326
141.000000000	2.697356000	0.001352919
142.000000000	2.702717000	0.001359536
143.000000000	2.708090000	0.001366154
144.000000000	2.713576000	0.001372752
145.000000000	2.718718000	0.001379335
146.000000000	2.724295000	0.001385817
147.000000000	2.729729000	0.001392374
148.000000000	2.735041000	0.001398820
149.000000000	2.740305000	0.001405291
150.000000000	2.745929000	0.001411580
151.000000000	2.751090000	0.001418176
152.000000000	2.756276000	0.001424583
153.000000000	2.761778000	0.001431010
154.000000000	2.767075000	0.001437394
155.000000000	2.772301000	0.001443776
156.000000000	2.777737000	0.001450131
157.000000000	2.783038000	0.001456453
158.000000000	2.788226000	0.001462765
159.000000000	2.793697000	0.001468631
160.000000000	2.798995000	0.001475317
161.000000000	2.804123000	0.001481354
162.000000000	2.809439000	0.001487601
163.000000000	2.814847000	0.001493812
164.000000000	2.819830000	0.001499822
165.000000000	2.825463000	0.001506218
166.000000000	2.830697000	0.001512471
167.000000000	2.835929000	0.001518643
168.000000000	2.841318000	0.001524828
169.000000000	2.846692000	0.001530990
170.000000000	2.851928000	0.001537075
171.000000000	2.857167000	0.001543194
172.000000000	2.862543000	0.001549304
173.000000000	2.867690000	0.001554838
174.000000000	2.872960000	0.001561378
175.000000000	2.878436000	0.001567490
176.000000000	2.883644000	0.001573416
177.000000000	2.888984000	0.001579509
178.000000000	2.894355000	0.001585752
179.000000000	2.899629000	0.001591725
180.000000000	2.904733000	0.001597668
181.000000000	2.910175000	0.001603650
182.000000000	2.915190000	0.001609048
183.000000000	2.920430000	0.001615386
184.000000000	2.925749000	0.001621290
185.000000000	2.930880000	0.001627131
186.000000000	2.936015000	0.001633023
187.000000000	2.941362000	0.001638862
188.000000000	2.946461000	0.001644734
189.000000000	2.951397000	0.001674581
190.000000000	2.956521000	0.001664023
191.000000000	2.961856000	0.001666885
192.000000000	2.966872000	0.001671322
193.000000000	2.972085000	0.001676334
194.000000000	2.977484000	0.001681535
195.000000000	2.982537000	0.001686506
196.000000000	2.987960000	0.001692330
197.000000000	2.993367000	0.001697851
198.000000000	2.998674000	0.001703243
199.000000000	3.004177000	0.001708952
200.000000000	3.009394000	0.001714458
201.000000000	3.014685000	0.001719906
202.000000000	3.019969000	0.001725536
203.000000000	3.025276000	0.001731031
204.000000000	3.030273000	0.001736315
205.000000000	3.035604000	0.001742006
206.000000000	3.040986000	0.001747546
207.000000000	3.045939000	0.001753022
208.000000000	3.051286000	0.001758392
209.000000000	3.056369000	0.001763959
210.000000000	3.061378000	0.001769394
211.000000000	3.066822000	0.001774899
212.000000000	3.072062000	0.001780229
213.000000000	3.077092000	0.001785578
214.000000000	3.082387000	0.001791178
215.000000000	3.087457000	0.001796487
216.000000000	3.092499000	0.001801776
217.000000000	3.097820000	0.001807182
218.000000000	3.102881000	0.001812461
219.000000000	3.108043000	0.001817755
220.000000000	3.113359000	0.001822987
221.000000000	3.118681000	0.001828385
222.000000000	3.123728000	0.001833514
223.000000000	3.128994000	0.001838991
224.000000000	3.134343000	0.001844102
225.000000000	3.139548000	0.001849493
226.000000000	3.144912000	0.001854795
227.000000000	3.150101000	0.001859752
228.000000000	3.155228000	0.001864944
229.000000000	3.160479000	0.001870169
230.000000000	3.165483000	0.001875115
231.000000000	3.170573000	0.001880283
232.000000000	3.175766000	0.001885621
233.000000000	3.180916000	0.001890510
234.000000000	3.186068000	0.001895776
235.000000000	3.191056000	0.001900935
236.000000000	3.196136000	0.001905780
237.000000000	3.201040000	0.001910824
238.000000000	3.206581000	0.001916003
239.000000000	3.211754000	0.001921004
240.000000000	3.217092000	0.001925720
241.000000000	3.222614000	0.001930984
242.000000000	3.228055000	0.001935907
243.000000000	3.232992000	0.001940879
244.000000000	3.238076000	0.001945945
245.000000000	3.243615000	0.001950658
246.000000000	3.248632000	0.001955546
247.000000000	3.253905000	0.001960392
248.000000000	3.259094000	0.001965339
249.000000000	3.264357000	0.001969865
250.000000000	3.269810000	0.001975117
251.000000000	3.274819000	0.001980003
252.000000000	3.279720000	0.001984870
253.000000000	3.284590000	0.001989751
254.000000000	3.289274000	0.001994468
255.000000000	3.294060000	0.001999291
256.000000000	3.299136000	0.002004032
257.000000000	3.303898000	0.002008781
258.000000000	3.309054000	0.002013516
259.000000000	3.314311000	0.002018212
260.000000000	3.319490000	0.002022921
261.000000000	3.324594000	0.002027770
262.000000000	3.329982000	0.002032368
263.000000000	3.334749000	0.002036967
264.000000000	3.339872000	0.002041753
265.000000000	3.345034000	0.002046336
266.000000000	3.350118000	0.002050947
267.000000000	3.355251000	0.002055598
268.000000000	3.360359000	0.002059980
269.000000000	3.365306000	0.002064503
270.000000000	3.370406000	0.002069231
271.000000000	3.375517000	0.002073744
272.000000000	3.380462000	0.002078227
273.000000000	3.385685000	0.002082360
274.000000000	3.390667000	0.002087312
275.000000000	3.395444000	0.002091928
276.000000000	3.400328000	0.002096150
277.000000000	3.405245000	0.002100542
278.000000000	3.410035000	0.002104973
279.000000000	3.415013000	0.002109451
280.000000000	3.420040000	0.002113660
281.000000000	3.425033000	0.002118146
282.000000000	3.430089000	0.002122411
283.000000000	3.434940000	0.002126714
284.000000000	3.439854000	0.002131112
285.000000000	3.445158000	0.002135483
286.000000000	3.450083000	0.002139681
287.000000000	3.454953000	0.002144060
288.000000000	3.459412000	0.002148337
289.000000000	3.463573000	0.002152482
290.000000000	3.468009000	0.002156705
291.000000000	3.472848000	0.002160818
292.000000000	3.477400000	0.002165162
293.000000000	3.482345000	0.002169380
294.000000000	3.487343000	0.002173552
295.000000000	3.492283000	0.002177557
296.000000000	3.497468000	0.002181849
297.000000000	3.502643000	0.002186014
298.000000000	3.507651000	0.002190051
299.000000000	3.512604000	0.002194176
300.000000000	3.517154000	0.002197936
301.000000000	3.521842000	0.002202089
302.000000000	3.526483000	0.002206188
303.000000000	3.531348000	0.002210156
304.000000000	3.536015000	0.002214228
305.000000000	3.541225000	0.002218273
306.000000000	3.546685000	0.002222066
307.000000000	3.552082000	0.002226017
308.000000000	3.557639000	0.002230028
309.000000000	3.562747000	0.002233699
310.000000000	3.568062000	0.002237799
311.000000000	3.572933000	0.002241659
312.000000000	3.577365000	0.002245540
313.000000000	3.582528000	0.002249334
314.000000000	3.587121000	0.002253011
315.000000000	3.591487000	0.002256981
316.000000000	3.595988000	0.002260858
317.000000000	3.600709000	0.002264670
318.000000000	3.604141000	0.002268449
319.000000000	3.608641000	0.002272144
320.000000000	3.613199000	0.002275964
321.000000000	3.617802000	0.002279819
322.000000000	3.622930000	0.002283434
323.000000000	3.627708000	0.002286764
324.000000000	3.632624000	0.002290894
325.000000000	3.637333000	0.002294491
326.000000000	3.641759000	0.002298141
327.000000000	3.645669000	0.002301847
328.000000000	3.650197000	0.002305242
329.000000000	3.654363000	0.002308994
330.000000000	3.659465000	0.002312657
331.000000000	3.664222000	0.002316170
332.000000000	3.669315000	0.002319768
333.000000000	3.674324000	0.002323305
334.000000000	3.679818000	0.002326768
335.000000000	3.685233000	0.002330275
336.000000000	3.690704000	0.002333818
337.000000000	3.696340000	0.002337042
338.000000000	3.701648000	0.002340712
339.000000000	3.707583000	0.002344280
340.000000000	3.713669000	0.002347545
341.000000000	3.718426000	0.002351087
342.000000000	3.722482000	0.002354557
343.000000000	3.727243000	0.002357543
344.000000000	3.740912000	0.002359600
345.000000000	3.740779000	0.002363188
346.000000000	3.737621000	0.002366497
347.000000000	3.737790000	0.002369865
348.000000000	3.739033000	0.002373303
349.000000000	3.743201000	0.002376496
350.000000000	3.747208000	0.002379662
351.000000000	3.751685000	0.002382975
352.000000000	3.756071000	0.002386139
353.000000000	3.760235000	0.002389246
354.000000000	3.764928000	0.002392434
355.000000000	3.769265000	0.002395481
356.000000000	3.773850000	0.002398666
357.000000000	3.778384000	0.002401868
358.000000000	3.782897000	0.002404864
359.000000000	3.787431000	0.002407653
360.000000000	3.792094000	0.002411108
361.000000000	3.796484000	0.002414084
362.000000000	3.800835000	0.002417182
363.000000000	3.805435000	0.002420131
364.000000000	3.809687000	0.002423121
365.000000000	3.814433000	0.002426121
366.000000000	3.818860000	0.002429107
367.000000000	3.823268000	0.002431968
368.000000000	3.828421000	0.002434910
369.000000000	3.833207000	0.002437741
370.000000000	3.837811000	0.002440622
371.000000000	3.842719000	0.002443523
372.000000000	3.847537000	0.002446305
373.000000000	3.852530000	0.002449147
374.000000000	3.857662000	0.002452118
375.000000000	3.862635000	0.002454619
376.000000000	3.867943000	0.002457547
377.000000000	3.873545000	0.002460210
378.000000000	3.878788000	0.002462973
379.000000000	3.883518000	0.002465675
380.000000000	3.888343000	0.002468452
381.000000000	3.892578000	0.002470802
382.000000000	3.897066000	0.002473853
383.000000000	3.902126000	0.002476450
384.000000000	3.906294000	0.002478986
385.000000000	3.911140000	0.002481717
386.000000000	3.916064000	0.002484145
387.000000000	3.920321000	0.002486675
388.000000000	3.927991000	0.002489314
389.000000000	3.933104000	0.002491761
390.000000000	3.937790000	0.002494282
391.000000000	3.942354000	0.002496651
392.000000000	3.949501000	0.002499369
393.000000000	3.956366000	0.002501767
394.000000000	3.962959000	0.002504298
395.000000000	3.965541000	0.002506616
396.000000000	3.968821000	0.002508729
397.000000000	3.973389000	0.002511278
398.000000000	3.981220000	0.002513766
399.000000000	3.987045000	0.002516002
400.000000000	3.999051000	0.002518499
401.000000000	3.999835000	0.002520653
402.000000000	4.002131000	0.002522929
403.000000000	4.004501000	0.002525115
404.000000000	4.007852000	0.002527268
405.000000000	4.014828000	0.002529321
406.000000000	4.020988000	0.002531677
407.000000000	4.022701000	0.002533676
408.000000000	4.025595000	0.002535955
409.000000000	4.025709000	0.002538040
410.000000000	4.028802000	0.002540150
411.000000000	4.032611000	0.002542191
412.000000000	4.037844000	0.002544385
413.000000000	4.043756000	0.002546369
414.000000000	4.043027000	0.002548269
415.000000000	4.048018000	0.002550488
416.000000000	4.055829000	0.002552383
417.000000000	4.058633000	0.002554554
418.000000000	4.067552000	0.002556484
419.000000000	4.073967000	0.002558475
420.000000000	4.081887000	0.002560243
421.000000000	4.078627000	0.002562429
422.000000000	4.082504000	0.002564324
423.000000000	4.088420000	0.002566185
424.000000000	4.093114000	0.002568147
425.000000000	4.092959000	0.002569927
426.000000000	4.098124000	0.002571825
427.000000000	4.103516000	0.002573741
428.000000000	4.107242000	0.002575410
429.000000000	4.110482000	0.002577084
430.000000000	4.114652000	0.002578960
431.000000000	4.115476000	0.002580555
432.000000000	4.119492000	0.002582109
433.000000000	4.124566000	0.002584111
434.000000000	4.127813000	0.002585680
435.000000000	4.130429000	0.002587360
436.000000000	4.139344000	0.002589162
437.000000000	4.143662000	0.002590813
438.000000000	4.145244000	0.002592404
439.000000000	4.150234000	0.002593977
440.000000000	4.153856000	0.002595532
441.000000000	4.159147000	0.002596947
442.000000000	4.163709000	0.002598781
443.000000000	4.173121000	0.002600241
444.000000000	4.182780000	0.002601829
445.000000000	4.188572000	0.002603617
446.000000000	4.195113000	0.002605081
447.000000000	4.199406000	0.002606221
448.000000000	4.198887000	0.002607404
449.000000000	4.204262000	0.002608656
450.000000000	4.216713000	0.002609889
451.000000000	4.222352000	0.002611460
452.000000000	4.228220000	0.002613281
453.000000000	4.235687000	0.002614460
454.000000000	4.238580000	0.002614961
455.000000000	4.239589000	0.002616730
456.000000000	4.240436000	0.002617929
457.000000000	4.246647000	0.002619105
458.000000000	4.246657000	0.002620341
459.000000000	4.246795000	0.002621415
460.000000000	4.247888000	0.002622817
461.000000000	4.255971000	0.002624078
462.000000000	4.267422000	0.002625382
463.000000000	4.266541000	0.002626324
464.000000000	4.266365000	0.002627603
465.000000000	4.265658000	0.002628873
466.000000000	4.267719000	0.002629984
467.000000000	4.273977000	0.002631191
468.000000000	4.276812000	0.002632201
469.000000000	4.282927000	0.002633236
470.000000000	4.297828000	0.002634299
471.000000000	4.294274000	0.002635331
472.000000000	4.300823000	0.002636291
473.000000000	4.305549000	0.002637416
474.000000000	4.306752000	0.002638405
475.000000000	4.315615000	0.002639369
476.000000000	4.320267000	0.002640342
477.000000000	4.321040000	0.002641288
478.000000000	4.324455000	0.002642200
479.000000000	4.329920000	0.002643180
480.000000000	4.330099000	0.002643996
481.000000000	4.334689000	0.002644848
482.000000000	4.333256000	0.002645724
483.000000000	4.336414000	0.002646606
484.000000000	4.336573000	0.002647381
485.000000000	4.341053000	0.002648433
486.000000000	4.344527000	0.002649113
487.000000000	4.345878000	0.002649906
488.000000000	4.350943000	0.002650741
489.000000000	4.355151000	0.002651391
490.000000000	4.356351000	0.002652184
491.000000000	4.365402000	0.002653012
492.000000000	4.366094000	0.002653928
493.000000000	4.369027000	0.002654898
494.000000000	4.381231000	0.002655962
495.000000000	4.388251000	0.002656094
496.000000000	4.387127000	0.002656597
497.000000000	4.390783000	0.002657451
498.000000000	4.395240000	0.002658124
499.000000000	4.396789000	0.002658829
500.000000000	4.395640000	0.002659604
501.000000000	4.395668000	0.002660394
502.000000000	4.401656000	0.002660753
503.000000000	4.404028000	0.002661264
504.000000000	4.401785000	0.002661548
505.000000000	4.410681000	0.002662071
506.000000000	4.419532000	0.002662621
507.000000000	4.427582000	0.002662948
508.000000000	4.429728000	0.002663412
509.000000000	4.429113000	0.002663752
510.000000000	4.426491000	0.002664091
511.000000000	4.432637000	0.002664430
512.000000000	4.439837000	0.002664787
513.000000000	4.445315000	0.002665089
514.000000000	4.445349000	0.002665394
515.000000000	4.451588000	0.002665764
516.000000000	4.456317000	0.002666188
517.000000000	4.462978000	0.002666533
518.000000000	4.467989000	0.002666849
519.000000000	4.464660000	0.002667068
520.000000000	4.471553000	0.002667545
521.000000000	4.476833000	0.002667665
522.000000000	4.486679000	0.002667871
523.000000000	4.490991000	0.002668179
524.000000000	4.495813000	0.002668226
525.000000000	4.492674000	0.002668459
526.000000000	4.493895000	0.002668727
527.000000000	4.503187000	0.002668680
528.000000000	4.500538000	0.002668906
529.000000000	4.500261000	0.002668982
530.000000000	4.499612000	0.002668993
531.000000000	4.518317000	0.002669148
532.000000000	4.518476000	0.002669262
533.000000000	4.521066000	0.002669314
534.000000000	4.530662000	0.002669315
535.000000000	4.536142000	0.002669213
536.000000000	4.543077000	0.002669027
537.000000000	4.548818000	0.002669087
538.000000000	4.549253000	0.002668986
539.000000000	4.551801000	0.002668640
540.000000000	4.557478000	0.002668392
541.000000000	4.558164000	0.002668148
542.000000000	4.567137000	0.002667960
543.000000000	4.560702000	0.002667827
544.000000000	4.565072000	0.002667284
545.000000000	4.571880000	0.002666925
546.000000000	4.582829000	0.002666913
547.000000000	4.576424000	0.002666663
548.000000000	4.576103000	0.002666199
549.000000000	4.572372000	0.002665857
550.000000000	4.573317000	0.002665700
551.000000000	4.575803000	0.002665167
552.000000000	4.582364000	0.002664917
553.000000000	4.588781000	0.002664518
554.000000000	4.596230000	0.002664129
555.000000000	4.599874000	0.002663996
556.000000000	4.604467000	0.002663031
557.000000000	4.616125000	0.002662436
558.000000000	4.628314000	0.002661769
559.000000000	4.624549000	0.002661015
560.000000000	4.615993000	0.002660271
561.000000000	4.625566000	0.002659494
562.000000000	4.640264000	0.002658559
563.000000000	4.627887000	0.002657928
564.000000000	4.639021000	0.002656883
565.000000000	4.632586000	0.002656073
566.000000000	4.635277000	0.002655230
567.000000000	4.632559000	0.002654365
568.000000000	4.641859000	0.002653584
569.000000000	4.636388000	0.002652678
570.000000000	4.649357000	0.002651413
571.000000000	4.648738000	0.002650451
572.000000000	4.649359000	0.002649343
573.000000000	4.652226000	0.002648321
574.000000000	4.646980000	0.002647916
575.000000000	4.657221000	0.002647271
576.000000000	4.665831000	0.002646187
577.000000000	4.663104000	0.002645190
578.000000000	4.671582000	0.002643966
579.000000000	4.684449000	0.002642727
580.000000000	4.696817000	0.002641422
581.000000000	4.695778000	0.002640200
582.000000000	4.691568000	0.002638806
583.000000000	4.687076000	0.002637437
584.000000000	4.683557000	0.002636180
585.000000000	4.680188000	0.002634843
586.000000000	4.680332000	0.002633641
587.000000000	4.684365000	0.002632510
588.000000000	4.706399000	0.002631198
589.000000000	4.704006000	0.002629827
590.000000000	4.702249000	0.002628423
591.000000000	4.726186000	0.002626903
592.000000000	4.714553000	0.002625477
593.000000000	4.721549000	0.002623888
594.000000000	4.721077000	0.002622152
595.000000000	4.722148000	0.002620644
596.000000000	4.716821000	0.002619092
597.000000000	4.728442000	0.002617436
598.000000000	4.736619000	0.002616105
599.000000000	4.743988000	0.002614443
600.000000000	4.758617000	0.002612923
601.000000000	4.763620000	0.002611114
602.000000000	4.751303000	0.002609425
603.000000000	4.752787000	0.002607813
604.000000000	4.761333000	0.002606308
605.000000000	4.768805000	0.002604733
606.000000000	4.762800000	0.002603860
607.000000000	4.767265000	0.002604574
608.000000000	4.770755000	0.002602396
609.000000000	4.778191000	0.002598687
610.000000000	4.779900000	0.002581697
611.000000000	4.842296000	0.002567104
612.000000000	4.773047000	0.002596912
613.000000000	4.767406000	0.002603116
614.000000000	4.769749000	0.002603144
615.000000000	4.772717000	0.002602012
616.000000000	4.790260000	0.002600903
617.000000000	4.786618000	0.002599404
618.000000000	4.790003000	0.002597775
619.000000000	4.794991000	0.002595950
620.000000000	4.804602000	0.002594448
621.000000000	4.805830000	0.002593254
622.000000000	4.806622000	0.002591715
623.000000000	4.809895000	0.002590369
624.000000000	4.811760000	0.002589191
625.000000000	4.809648000	0.002587788
626.000000000	4.812291000	0.002586293
627.000000000	4.812734000	0.002584816
628.000000000	4.816263000	0.002583111
629.000000000	4.812647000	0.002581490
630.000000000	4.809149000	0.002579832
631.000000000	4.813201000	0.002577738
632.000000000	4.824231000	0.002575688
633.000000000	4.829346000	0.002573793
634.000000000	4.845919000	0.002571761
635.000000000	4.857738000	0.002569601
636.000000000	4.849497000	0.002567366
637.000000000	4.850746000	0.002564945
638.000000000	4.845619000	0.002562320
639.000000000	4.851207000	0.002559956
640.000000000	4.861874000	0.002557344
641.000000000	4.856866000	0.002554825
642.000000000	4.852630000	0.002552429
643.000000000	4.848643000	0.002549931
644.000000000	4.874463000	0.002547382
645.000000000	4.871159000	0.002544685
646.000000000	4.871792000	0.002541790
647.000000000	4.867892000	0.002538255
648.000000000	4.878815000	0.002534034
649.000000000	4.873653000	0.002528048
650.000000000	4.882883000	0.002516486
651.000000000	4.889237000	0.002516446
652.000000000	4.879899000	0.002520531
653.000000000	4.871886000	0.002519101
654.000000000	4.866755000	0.002526991
655.000000000	4.878272000	0.002522293
656.000000000	4.875084000	0.002526474
657.000000000	4.875084000	0.002524366
658.000000000	4.874858000	0.002522826
659.000000000	4.880563000	0.002522160
660.000000000	4.882360000	0.002522378
661.000000000	4.880839000	0.002522374
662.000000000	4.883078000	0.002521232
663.000000000	4.886805000	0.002519283
664.000000000	4.885465000	0.002517312
665.000000000	4.892208000	0.002515181
666.000000000	4.898721000	0.002512804
667.000000000	4.891472000	0.002510752
668.000000000	4.902470000	0.002509084
669.000000000	4.894882000	0.002507232
670.000000000	4.892426000	0.002505005
671.000000000	4.902230000	0.002502610
672.000000000	4.915305000	0.002499717
673.000000000	4.912968000	0.002496618
674.000000000	4.928380000	0.002493204
675.000000000	4.921422000	0.002489879
676.000000000	4.931881000	0.002486037
677.000000000	4.939677000	0.002482019
678.000000000	4.950586000	0.002477874
679.000000000	4.961332000	0.002473288
680.000000000	4.968652000	0.002468164
681.000000000	4.970065000	0.002461835
682.000000000	4.972225000	0.002450263
683.000000000	4.979028000	0.002442770
684.000000000	4.969905000	0.002444840
685.000000000	4.968885000	0.002443000
686.000000000	4.971686000	0.002439097
687.000000000	4.987202000	0.002433153
688.000000000	4.998834000	0.002429004
689.000000000	4.998834000	0.002420519
690.000000000	4.998799000	0.002415459
691.000000000	4.853314000	0.000486352
692.000000000	4.998807000	0.000008492
693.000000000	4.998781000	0.000002575
694.000000000	4.998752000	-0.000000856
695.000000000	4.998829000	-0.000000814
696.000000000	4.998794000	-0.000000861
697.000000000	4.998752000	-0.000000862
698.000000000	4.998814000	-0.000000817
699.000000000	4.998772000	-0.000000897
700.000000000	4.998794000	-0.000000898
