Current (mA)	Voltage (V)	Power (mW)
-5.000000000	-4.999673000	-0.000001283
-4.000000000	-5.000190000	-0.000000248
-3.000000000	-4.999786000	-0.000000179
-2.000000000	-5.000303000	-0.000000186
-1.000000000	-5.000064000	-0.000000066
0.000000000	-4.845827000	-0.000000070
1.000000000	1.759183000	0.000012787
2.000000000	1.785530000	0.000032605
3.000000000	1.800794000	0.000052743
4.000000000	1.811886000	0.000071346
5.000000000	1.820760000	0.000089041
6.000000000	1.828290000	0.000106064
7.000000000	1.834859000	0.000122529
8.000000000	1.840749000	0.000138545
9.000000000	1.846165000	0.000154236
10.000000000	1.851113000	0.000168950
11.000000000	1.855767000	0.000183309
12.000000000	1.860133000	0.000199171
13.000000000	1.864273000	0.000213731
14.000000000	1.868222000	0.000227699
15.000000000	1.871980000	0.000241497
16.000000000	1.875591000	0.000255027
17.000000000	1.879051000	0.000268412
18.000000000	1.882489000	0.000281508
19.000000000	1.885727000	0.000294379
20.000000000	1.888908000	0.000307449
21.000000000	1.892069000	0.000319987
22.000000000	1.895051000	0.000332676
23.000000000	1.897988000	0.000344997
24.000000000	1.900946000	0.000357200
25.000000000	1.903770000	0.000369456
26.000000000	1.906522000	0.000381397
27.000000000	1.909313000	0.000393234
28.000000000	1.911938000	0.000405198
29.000000000	1.914613000	0.000416797
30.000000000	1.917262000	0.000428335
31.000000000	1.919851000	0.000439795
32.000000000	1.922349000	0.000451175
33.000000000	1.924893000	0.000462510
34.000000000	1.927387000	0.000473903
35.000000000	1.929790000	0.000485033
36.000000000	1.932258000	0.000496030
37.000000000	1.934657000	0.000507119
38.000000000	1.937016000	0.000517312
39.000000000	1.939366000	0.000528881
40.000000000	1.941730000	0.000539717
41.000000000	1.944008000	0.000550574
42.000000000	1.946296000	0.000561149
43.000000000	1.948605000	0.000571594
44.000000000	1.950815000	0.000582526
45.000000000	1.953056000	0.000592913
46.000000000	1.955313000	0.000603392
47.000000000	1.957475000	0.000613889
48.000000000	1.959671000	0.000624262
49.000000000	1.961900000	0.000634570
50.000000000	1.964032000	0.000644930
51.000000000	1.966156000	0.000655135
52.000000000	1.968333000	0.000664710
53.000000000	1.970437000	0.000675545
54.000000000	1.972560000	0.000685602
55.000000000	1.974677000	0.000695786
56.000000000	1.976726000	0.000705745
57.000000000	1.978824000	0.000715678
58.000000000	1.980939000	0.000725611
59.000000000	1.982954000	0.000735689
60.000000000	1.984997000	0.000745477
61.000000000	1.987073000	0.000754720
62.000000000	1.989085000	0.000765136
63.000000000	1.991091000	0.000774868
64.000000000	1.993143000	0.000784630
65.000000000	1.995157000	0.000794344
66.000000000	1.997113000	0.000803846
67.000000000	1.999154000	0.000813638
68.000000000	2.001137000	0.000823394
69.000000000	2.003074000	0.000832885
70.000000000	2.005077000	0.000842408
71.000000000	2.007037000	0.000851953
72.000000000	2.008938000	0.000861438
73.000000000	2.010955000	0.000870818
74.000000000	2.012867000	0.000880332
75.000000000	2.014777000	0.000889572
76.000000000	2.016752000	0.000899056
77.000000000	2.018637000	0.000908399
78.000000000	2.020554000	0.000917587
79.000000000	2.022468000	0.000926176
80.000000000	2.024394000	0.000936274
81.000000000	2.026242000	0.000945477
82.000000000	2.028206000	0.000954666
83.000000000	2.030050000	0.000963959
84.000000000	2.031941000	0.000972723
85.000000000	2.033855000	0.000982084
86.000000000	2.035700000	0.000991270
87.000000000	2.037548000	0.001000293
88.000000000	2.039431000	0.001009281
89.000000000	2.041290000	0.001018385
90.000000000	2.043122000	0.001027390
91.000000000	2.045022000	0.001036315
92.000000000	2.046853000	0.001045305
93.000000000	2.048708000	0.001053806
94.000000000	2.050563000	0.001063085
95.000000000	2.052363000	0.001072013
96.000000000	2.054170000	0.001080823
97.000000000	2.056034000	0.001089594
98.000000000	2.057823000	0.001098070
99.000000000	2.059620000	0.001107184
100.000000000	2.061480000	0.001115940
101.000000000	2.063295000	0.001124729
102.000000000	2.065065000	0.001133425
103.000000000	2.066885000	0.001142044
104.000000000	2.068684000	0.001150762
105.000000000	2.070432000	0.001159331
106.000000000	2.072553000	0.001166776
107.000000000	2.074298000	0.001177136
108.000000000	2.076055000	0.001186346
109.000000000	2.077890000	0.001194804
110.000000000	2.079668000	0.001203351
111.000000000	2.081394000	0.001211895
112.000000000	2.083222000	0.001220309
113.000000000	2.084987000	0.001228806
114.000000000	2.086699000	0.001237296
115.000000000	2.088505000	0.001245587
116.000000000	2.090240000	0.001254053
117.000000000	2.091979000	0.001262479
118.000000000	2.093791000	0.001270707
119.000000000	2.095524000	0.001278907
120.000000000	2.097217000	0.001287284
121.000000000	2.098999000	0.001295137
122.000000000	2.100985000	0.001302748
123.000000000	2.102567000	0.001311171
124.000000000	2.104466000	0.001319336
125.000000000	2.106066000	0.001326922
126.000000000	2.107775000	0.001335701
127.000000000	2.109714000	0.001343832
128.000000000	2.111271000	0.001352046
129.000000000	2.112885000	0.001360015
130.000000000	2.114766000	0.001367758
131.000000000	2.116415000	0.001376036
132.000000000	2.118043000	0.001384119
133.000000000	2.119879000	0.001392066
134.000000000	2.121555000	0.001400105
135.000000000	2.123353000	0.001407363
136.000000000	2.125027000	0.001415828
137.000000000	2.126585000	0.001423797
138.000000000	2.128247000	0.001431651
139.000000000	2.130085000	0.001439494
140.000000000	2.131643000	0.001447278
141.000000000	2.133271000	0.001455193
142.000000000	2.135138000	0.001462886
143.000000000	2.136718000	0.001470718
144.000000000	2.138404000	0.001478434
145.000000000	2.140130000	0.001486074
146.000000000	2.141755000	0.001493872
147.000000000	2.143384000	0.001501538
148.000000000	2.145113000	0.001509128
149.000000000	2.146705000	0.001516351
150.000000000	2.148302000	0.001524333
151.000000000	2.150087000	0.001531769
152.000000000	2.151672000	0.001539413
153.000000000	2.153399000	0.001546756
154.000000000	2.155080000	0.001554258
155.000000000	2.156653000	0.001561789
156.000000000	2.158245000	0.001569120
157.000000000	2.160073000	0.001576532
158.000000000	2.161522000	0.001583708
159.000000000	2.163208000	0.001591427
160.000000000	2.164998000	0.001598753
161.000000000	2.166473000	0.001606035
162.000000000	2.168109000	0.001613251
163.000000000	2.169853000	0.001620463
164.000000000	2.171357000	0.001627820
165.000000000	2.172942000	0.001635026
166.000000000	2.174747000	0.001642177
167.000000000	2.176178000	0.001673601
168.000000000	2.177847000	0.001666064
169.000000000	2.179506000	0.001668659
170.000000000	2.180941000	0.001674369
171.000000000	2.182728000	0.001680576
172.000000000	2.184366000	0.001687075
173.000000000	2.185840000	0.001693874
174.000000000	2.187489000	0.001700423
175.000000000	2.189228000	0.001707260
176.000000000	2.190634000	0.001714117
177.000000000	2.192235000	0.001720830
178.000000000	2.193835000	0.001727420
179.000000000	2.195383000	0.001734488
180.000000000	2.197062000	0.001741205
181.000000000	2.198772000	0.001747955
182.000000000	2.200231000	0.001754865
183.000000000	2.201839000	0.001761354
184.000000000	2.203457000	0.001768033
185.000000000	2.204925000	0.001774723
186.000000000	2.206540000	0.001781407
187.000000000	2.208116000	0.001787881
188.000000000	2.209686000	0.001794611
189.000000000	2.211215000	0.001801200
190.000000000	2.212945000	0.001807883
191.000000000	2.214464000	0.001813822
192.000000000	2.215987000	0.001820825
193.000000000	2.217556000	0.001827147
194.000000000	2.218978000	0.001833764
195.000000000	2.220636000	0.001840141
196.000000000	2.222152000	0.001846384
197.000000000	2.223629000	0.001853079
198.000000000	2.225301000	0.001859358
199.000000000	2.226883000	0.001865641
200.000000000	2.228319000	0.001871865
201.000000000	2.229924000	0.001878164
202.000000000	2.231500000	0.001884485
203.000000000	2.232864000	0.001890605
204.000000000	2.234629000	0.001896611
205.000000000	2.236047000	0.001902797
206.000000000	2.237442000	0.001909090
207.000000000	2.239125000	0.001915129
208.000000000	2.240605000	0.001921273
209.000000000	2.242222000	0.001927250
210.000000000	2.243732000	0.001933266
211.000000000	2.245215000	0.001939183
212.000000000	2.246658000	0.001945102
213.000000000	2.248396000	0.001951038
214.000000000	2.249713000	0.001956906
215.000000000	2.251183000	0.001962917
216.000000000	2.252781000	0.001968704
217.000000000	2.254224000	0.001974623
218.000000000	2.255792000	0.001980513
219.000000000	2.257236000	0.001986130
220.000000000	2.258778000	0.001991903
221.000000000	2.260096000	0.001997678
222.000000000	2.261723000	0.002003237
223.000000000	2.263069000	0.002008765
224.000000000	2.264645000	0.002014509
225.000000000	2.266296000	0.002020288
226.000000000	2.267638000	0.002025979
227.000000000	2.269182000	0.002030991
228.000000000	2.270638000	0.002036613
229.000000000	2.271992000	0.002042176
230.000000000	2.273528000	0.002047473
231.000000000	2.275142000	0.002053031
232.000000000	2.276363000	0.002058346
233.000000000	2.277976000	0.002063738
234.000000000	2.279463000	0.002069110
235.000000000	2.280784000	0.002074498
236.000000000	2.282332000	0.002079565
237.000000000	2.283735000	0.002084888
238.000000000	2.285138000	0.002090087
239.000000000	2.286741000	0.002095405
240.000000000	2.288121000	0.002100410
241.000000000	2.289579000	0.002105377
242.000000000	2.291063000	0.002110525
243.000000000	2.292329000	0.002115667
244.000000000	2.293847000	0.002120564
245.000000000	2.295238000	0.002125609
246.000000000	2.296721000	0.002130648
247.000000000	2.298098000	0.002135427
248.000000000	2.299628000	0.002140323
249.000000000	2.300955000	0.002145234
250.000000000	2.302477000	0.002149653
251.000000000	2.303978000	0.002154667
252.000000000	2.305138000	0.002159575
253.000000000	2.306653000	0.002164246
254.000000000	2.308066000	0.002168860
255.000000000	2.309377000	0.002173607
256.000000000	2.310873000	0.002178276
257.000000000	2.312275000	0.002182852
258.000000000	2.313542000	0.002187370
259.000000000	2.315105000	0.002191700
260.000000000	2.316484000	0.002196254
261.000000000	2.317721000	0.002200778
262.000000000	2.319292000	0.002205171
263.000000000	2.320498000	0.002209146
264.000000000	2.321914000	0.002213840
265.000000000	2.323450000	0.002218134
266.000000000	2.324726000	0.002222611
267.000000000	2.326053000	0.002226929
268.000000000	2.327533000	0.002230902
269.000000000	2.328730000	0.002235141
270.000000000	2.330217000	0.002239246
271.000000000	2.331561000	0.002243497
272.000000000	2.332959000	0.002247150
273.000000000	2.334350000	0.002251621
274.000000000	2.335688000	0.002255622
275.000000000	2.336962000	0.002259620
276.000000000	2.338413000	0.002263539
277.000000000	2.339679000	0.002267504
278.000000000	2.341021000	0.002271336
279.000000000	2.342466000	0.002275067
280.000000000	2.343736000	0.002278894
281.000000000	2.345170000	0.002282671
282.000000000	2.346663000	0.002286334
283.000000000	2.347799000	0.002290054
284.000000000	2.349198000	0.002293644
285.000000000	2.350514000	0.002297376
286.000000000	2.351739000	0.002300865
287.000000000	2.353201000	0.002304398
288.000000000	2.354537000	0.002308070
289.000000000	2.355703000	0.002311417
290.000000000	2.357109000	0.002314810
291.000000000	2.358458000	0.002318321
292.000000000	2.359702000	0.002321608
293.000000000	2.361245000	0.002324911
294.000000000	2.362481000	0.002328342
295.000000000	2.363822000	0.002331430
296.000000000	2.365357000	0.002334670
297.000000000	2.366554000	0.002338030
298.000000000	2.367719000	0.002341149
299.000000000	2.368843000	0.002344002
300.000000000	2.370044000	0.002347517
301.000000000	2.371372000	0.002350464
302.000000000	2.372645000	0.002353591
303.000000000	2.373703000	0.002356705
304.000000000	2.374911000	0.002359736
305.000000000	2.376025000	0.002362783
306.000000000	2.377228000	0.002365696
307.000000000	2.378606000	0.002368579
308.000000000	2.379674000	0.002371373
309.000000000	2.381027000	0.002374261
310.000000000	2.382487000	0.002377151
311.000000000	2.383543000	0.002379906
312.000000000	2.384971000	0.002382762
313.000000000	2.386132000	0.002385426
314.000000000	2.387310000	0.002388201
315.000000000	2.388587000	0.002390927
316.000000000	2.389946000	0.002393515
317.000000000	2.390993000	0.002396045
318.000000000	2.392352000	0.002398652
319.000000000	2.393799000	0.002401256
320.000000000	2.394928000	0.002403852
321.000000000	2.396315000	0.002406211
322.000000000	2.397444000	0.002408822
323.000000000	2.398595000	0.002411196
324.000000000	2.400072000	0.002413522
325.000000000	2.401201000	0.002415990
326.000000000	2.402520000	0.002418225
327.000000000	2.403925000	0.002420621
328.000000000	2.405082000	0.002422960
329.000000000	2.406635000	0.002425184
330.000000000	2.407653000	0.002427531
331.000000000	2.409175000	0.002429790
332.000000000	2.410587000	0.002431795
333.000000000	2.412136000	0.002434068
334.000000000	2.413321000	0.002436187
335.000000000	2.415060000	0.002438164
336.000000000	2.416685000	0.002440319
337.000000000	2.418024000	0.002442381
338.000000000	2.419562000	0.002444243
339.000000000	2.420717000	0.002446476
340.000000000	2.421680000	0.002448581
341.000000000	2.422603000	0.002450705
342.000000000	2.423421000	0.002452805
343.000000000	2.422269000	0.002455427
344.000000000	2.422570000	0.002457733
345.000000000	2.423145000	0.002459986
346.000000000	2.424000000	0.002462083
347.000000000	2.424803000	0.002463981
348.000000000	2.426330000	0.002465615
349.000000000	2.427545000	0.002467566
350.000000000	2.428905000	0.002469339
351.000000000	2.430444000	0.002470988
352.000000000	2.432147000	0.002472388
353.000000000	2.433799000	0.002473845
354.000000000	2.435793000	0.002475207
355.000000000	2.438076000	0.002476525
356.000000000	2.440093000	0.002477899
357.000000000	2.442110000	0.002479259
358.000000000	2.443217000	0.002480732
359.000000000	2.444351000	0.002482508
360.000000000	2.446226000	0.002483862
361.000000000	2.447801000	0.002484795
362.000000000	2.449172000	0.002486055
363.000000000	2.450808000	0.002487070
364.000000000	2.452702000	0.002488200
365.000000000	2.454075000	0.002489221
366.000000000	2.455487000	0.002490314
367.000000000	2.455538000	0.002491966
368.000000000	2.455996000	0.002493269
369.000000000	2.456965000	0.002494350
370.000000000	2.457855000	0.002495527
371.000000000	2.459278000	0.002496470
372.000000000	2.460878000	0.002497404
373.000000000	2.462163000	0.002498162
374.000000000	2.464034000	0.002498777
375.000000000	2.465410000	0.002499552
376.000000000	2.466578000	0.002500184
377.000000000	2.468220000	0.002500622
378.000000000	2.469261000	0.002501411
379.000000000	2.469986000	0.002502102
380.000000000	2.471364000	0.002502626
381.000000000	2.472577000	0.002503120
382.000000000	2.474338000	0.002503234
383.000000000	2.476392000	0.002503300
384.000000000	2.478193000	0.002503343
385.000000000	2.480612000	0.002502965
386.000000000	2.482805000	0.002502891
387.000000000	2.484425000	0.002502799
388.000000000	2.485874000	0.002502847
389.000000000	2.486399000	0.002502999
390.000000000	2.487482000	0.002503135
391.000000000	2.488873000	0.002502908
392.000000000	2.490229000	0.002502807
393.000000000	2.490953000	0.002502659
394.000000000	2.491653000	0.002502558
395.000000000	2.492628000	0.002502371
396.000000000	2.494068000	0.002502259
397.000000000	2.492578000	0.002502549
398.000000000	2.493054000	0.002502387
399.000000000	2.494322000	0.002501773
400.000000000	2.495818000	0.002501262
401.000000000	2.497319000	0.002500486
402.000000000	2.498934000	0.002499562
403.000000000	2.499876000	0.002499140
404.000000000	2.500034000	0.002498931
405.000000000	2.499953000	0.002498761
406.000000000	2.500244000	0.002498467
407.000000000	2.500784000	0.002497836
408.000000000	2.501420000	0.002497432
409.000000000	2.502038000	0.002496646
410.000000000	2.503150000	0.002495708
411.000000000	2.504362000	0.002494719
412.000000000	2.505695000	0.002493449
413.000000000	2.507446000	0.002492199
414.000000000	2.508646000	0.002491106
415.000000000	2.509516000	0.002489861
416.000000000	2.511008000	0.002488550
417.000000000	2.511484000	0.002487490
418.000000000	2.512126000	0.002486306
419.000000000	2.513995000	0.002481964
420.000000000	2.522294000	0.002479066
421.000000000	2.535864000	0.002472804
422.000000000	2.532800000	0.002470435
423.000000000	2.533675000	0.002469044
424.000000000	2.532572000	0.002468057
425.000000000	2.533330000	0.002466639
426.000000000	2.534126000	0.002465286
427.000000000	2.535304000	0.002463227
428.000000000	2.536542000	0.002461559
429.000000000	2.538006000	0.002459488
430.000000000	2.538978000	0.002457760
431.000000000	2.540633000	0.002455668
432.000000000	2.539131000	0.002454821
433.000000000	2.540842000	0.002453561
434.000000000	2.539106000	0.002452354
435.000000000	2.540956000	0.002450098
436.000000000	2.542359000	0.002448077
437.000000000	2.543909000	0.002445724
438.000000000	2.545855000	0.002443493
439.000000000	2.547850000	0.002441058
440.000000000	2.549883000	0.002438673
441.000000000	2.552327000	0.002435735
442.000000000	2.554477000	0.002433112
443.000000000	2.555860000	0.002430523
444.000000000	2.555493000	0.002429070
445.000000000	2.557049000	0.002426938
446.000000000	2.558546000	0.002424153
447.000000000	2.561597000	0.002420734
448.000000000	2.563284000	0.002418064
449.000000000	2.566850000	0.002414312
450.000000000	2.571884000	0.002410395
451.000000000	2.571297000	0.002407836
452.000000000	2.574534000	0.002404206
453.000000000	2.578245000	0.002400759
454.000000000	2.580249000	0.002397875
455.000000000	2.580931000	0.002396490
456.000000000	2.578519000	0.002395042
457.000000000	2.579594000	0.002392441
458.000000000	2.582084000	0.002389708
459.000000000	2.582697000	0.002387918
460.000000000	2.580464000	0.002386860
461.000000000	2.581443000	0.002384317
462.000000000	2.582842000	0.002381516
463.000000000	2.584007000	0.002379495
464.000000000	2.578013000	0.002380029
465.000000000	2.576628000	0.002379047
466.000000000	2.576948000	0.002377257
467.000000000	2.576414000	0.002375516
468.000000000	2.576902000	0.002373490
469.000000000	2.577658000	0.002371064
470.000000000	2.578958000	0.002368517
471.000000000	2.580538000	0.002365935
472.000000000	2.581982000	0.002363249
473.000000000	2.583541000	0.002360232
474.000000000	2.585994000	0.002356892
475.000000000	2.587457000	0.002354055
476.000000000	2.588750000	0.002351551
477.000000000	2.589898000	0.002349205
478.000000000	2.589636000	0.002346863
479.000000000	2.590990000	0.002344220
480.000000000	2.592067000	0.002341786
481.000000000	2.589081000	0.002341070
482.000000000	2.588692000	0.002339201
483.000000000	2.589513000	0.002336918
484.000000000	2.589818000	0.002334961
485.000000000	2.589695000	0.002332837
486.000000000	2.591063000	0.002330114
487.000000000	2.593189000	0.002326962
488.000000000	2.594632000	0.002321885
489.000000000	2.603215000	0.002316923
490.000000000	2.605498000	0.002315952
491.000000000	2.626593000	0.002303016
492.000000000	2.633152000	0.002296393
493.000000000	2.631519000	0.002294953
494.000000000	2.636823000	0.002290589
495.000000000	2.634714000	0.002291228
496.000000000	2.626181000	0.002292320
497.000000000	2.619941000	0.002292869
498.000000000	2.618774000	0.002291737
499.000000000	2.615386000	0.002291360
500.000000000	2.615152000	0.002289663
